A_X[mg]	A_Y[mg]	A_Z[mg]	G_X[dps]	G_Y[dps]	G_Z[dps]	
-281.332001	-60.146000	1064.266968	1.141875	-1.264375	-1.023750
-285.846008	-54.961002	1062.010010	0.363125	0.743750	-1.925000
-269.253998	-53.924000	1012.966003	2.397500	4.108125	-1.435000
-248.574997	-56.364002	932.812012	3.788750	5.040000	0.590625
-165.005005	-29.036001	777.872009	4.606875	3.224375	5.376875
-108.214005	0.610000	601.765015	7.800625	4.121250	7.157500
-238.326996	-27.877001	602.679993	-4.760000	0.564375	-11.668125
-213.561005	-46.116001	575.656982	-11.182500	-12.853750	-15.382500
-102.846001	-38.003002	606.828003	-1.841875	-17.946251	-2.681875
-54.778000	-57.827999	707.539001	-20.146875	-1.535625	-31.005625
-156.709000	-73.809998	812.031982	-32.160625	10.504375	-29.671249
-201.178009	-145.973007	1045.296021	-19.980625	17.968124	-35.861874
-254.919006	-185.744995	1074.820068	-9.305625	-11.808125	-23.463125
-156.953003	-116.327003	1005.341003	15.653750	-37.091251	7.433125
-165.615005	-171.348999	1011.929016	31.211250	-43.203125	8.487500
-190.137009	34.709000	1280.572998	39.370625	-50.111252	28.713125
-248.697006	-90.646004	1311.134033	53.965626	-88.366249	31.504375
18.605000	61.487999	1413.065063	71.959999	-118.794373	16.161249
12.505000	163.906998	1364.082031	43.706249	-116.930626	21.980000
75.152000	-16.287001	1765.706055	38.150002	-88.038124	17.198126
103.456001	265.899017	1538.847046	35.236252	-41.864376	26.464375
167.505997	104.249001	1436.244995	54.040001	-24.368750	39.029373
63.379002	345.076996	1265.994019	45.500000	16.060625	29.522499
-11.956000	77.104004	1556.109985	14.415625	25.436251	16.590000
-37.149002	141.276001	1395.375000	14.175000	-11.449375	6.037500
-19.886000	239.425003	1251.598022	12.897500	-19.748751	3.670625
72.956001	176.046005	1218.536011	1.859375	-8.522500	5.875625
65.086998	220.087997	1161.500977	-4.930625	-5.411875	1.850625
97.844002	130.845001	1156.255005	-8.955625	0.953750	-4.217500
141.154007	171.104996	1152.534058	-2.279375	8.181250	-12.258750
83.631004	187.757996	1110.505005	-1.137500	11.948125	-7.284375
194.772995	163.785004	1115.873047	0.966875	11.138750	-7.210000
110.105003	190.442001	1048.162964	0.332500	7.498750	-10.701250
111.020004	144.326004	1066.036011	-2.047500	7.376250	-7.691250
109.678001	164.395004	1091.656006	2.769375	8.798125	-4.493125
-265.654999	41.723999	1067.438965	-2.918125	-5.849375	-0.262500
-278.221008	38.186001	1085.617065	-0.008750	-3.316250	4.108125
-256.139008	-1.281000	1080.920044	-1.036875	-1.544375	-1.102500
-280.173004	20.434999	1074.393066	-2.139375	-4.458125	-4.112500
-262.239014	6.100000	1083.177002	-3.478125	-5.446875	-3.325000
-207.705002	32.085999	1032.485962	-3.408125	0.183750	-6.396250
-212.889999	11.956000	936.593994	-4.515000	14.616875	-7.945000
-191.600998	-22.082001	765.184021	-6.041875	24.416876	-5.884375
-172.934998	-48.373001	634.949036	-0.476875	31.591875	-3.049375
-212.585007	15.982000	577.609009	-4.480000	37.979374	-1.697500
-168.115997	5.551000	544.242004	-14.826875	32.143124	-8.544375
-138.958008	69.540001	602.924011	-39.716251	38.373123	-10.066875
-211.487000	15.067000	778.299011	-27.238750	39.987499	-1.120000
-216.061996	-49.166000	846.741028	-39.081875	2.445625	-0.910000
-404.186005	-46.055000	1032.485962	-23.253124	-5.420625	2.625000
-280.600006	-103.273003	1170.468018	-28.262501	-14.651875	0.498750
-382.042999	-146.216995	1235.555054	1.439375	-60.458126	-3.220000
-233.081009	-71.370003	1135.636963	14.297500	-56.660625	-10.679375
-393.266998	10.919000	1197.430054	25.370625	-16.550625	7.459375
-304.634003	-15.067000	1274.167969	7.249375	-13.203750	4.593750
-380.152008	3.477000	1178.885986	-6.479375	-25.571875	-3.521875
-388.631012	-244.610001	1413.125977	-6.571250	-39.764374	-6.588750
-335.195007	-160.125000	1267.885010	-6.571250	-63.026249	-15.120000
-385.764008	-123.647003	1336.571045	10.290000	-63.026249	-12.473125
-188.246002	-53.375000	1370.974976	14.844375	-65.318748	-12.473125
-188.246002	-53.375000	1264.651978	15.728125	-58.121876	-12.315625
-257.968994	-112.056999	1264.651978	21.721874	-52.259377	-11.519375
-12.932000	-49.410000	1606.495972	25.536875	-75.941254	-2.813125
46.116001	100.223000	1311.255981	15.229375	-56.113750	7.953750
-240.035004	-275.720001	1301.557007	22.233749	-4.165000	3.066875
-91.682999	-58.926003	1235.738037	18.081875	2.161250	-17.368750
-108.823997	7.747000	1211.520996	11.593750	-5.250000	6.943125
-21.410999	-14.945000	1220.182983	12.884375	9.458750	8.986250
-115.412003	111.020004	1149.422974	6.146875	20.807501	8.693125
-63.744999	28.426001	1140.395020	1.999375	15.273125	7.109375
-6.832000	65.453003	1126.303955	4.095000	5.512500	-0.223125
-43.737000	45.139999	1089.520996	0.354375	2.887500	-6.155625
4.270000	32.879002	1130.269043	0.048125	9.406250	-6.973750
-365.817017	-30.378000	1045.784058	-3.263750	-0.822500	-0.840000
-344.345001	2.196000	1029.557983	-2.874375	0.052500	3.101875
-376.248016	-19.825001	1014.307983	-4.698750	2.384375	2.143750
-356.423004	-30.683001	980.026001	-5.390000	4.418750	0.402500
-365.938995	-25.559000	954.467041	-3.272500	3.920000	2.253125
-380.029999	-64.233002	962.640991	-1.986250	1.666875	2.476250
-310.916992	9.638000	894.565002	-0.529375	12.420625	-0.739375
-231.800003	63.867001	731.939026	0.433125	28.629999	-0.765625
-168.481995	16.592001	611.403015	-4.707500	37.598751	-9.056250
-198.250000	64.171997	469.455994	-21.056875	24.224375	-9.743125
-218.136002	-63.318001	587.125000	-0.411250	0.450625	-16.305626
-166.469009	-63.318001	661.117981	17.036249	-4.663750	-0.551250
-226.188004	-109.190002	783.850037	12.586875	-15.872500	6.759375
-241.438004	20.557001	921.710022	16.065001	-22.662500	-2.830625
-389.240997	-105.408005	975.085022	12.639375	-19.766251	-5.385625
-232.531998	74.603004	1184.925049	14.686875	-21.511875	0.463750
-390.888000	-27.267000	1188.097046	17.115000	-17.653126	3.985625
-313.906006	-77.835999	1202.187988	16.235624	-35.503124	7.096250
-316.101990	117.058998	1312.476074	31.136875	-66.963753	-0.905625
-309.087006	11.041000	1425.265015	20.886250	-65.445625	-5.438125
-304.450989	-19.886000	1251.598022	4.318125	-23.183125	-15.566250
-568.398010	133.589996	1402.755981	9.069375	-30.751875	-8.216250
-382.713989	39.528000	1234.945068	4.523750	-60.536877	-2.331875
-342.393005	-45.688999	1395.009033	19.324375	-98.437500	2.712500
-72.651001	152.012009	1485.105957	17.543751	-91.940628	14.778750
-85.522003	22.875000	1337.791016	-7.682500	-19.626249	13.991250
-159.393005	132.126007	1514.203003	-21.966875	20.068125	0.065625
-306.037018	-33.977001	1368.779053	0.630000	-2.121875	-15.522500
-128.770996	70.882004	1220.915039	12.346250	-19.446875	-14.875000
-132.492004	110.105003	1122.338989	-5.998125	5.188750	-10.609375
-132.003998	56.181000	1151.802002	-15.907500	25.261250	-13.868750
-82.167000	63.379002	1192.733032	-4.423125	12.035625	-9.476250
-74.969002	55.449001	1145.213989	-3.561250	12.796875	-6.632500
-39.466999	27.145000	1188.280029	-3.885000	23.375626	-3.898125
-115.778000	17.873001	1063.229980	-4.458125	23.638124	-1.701875
-93.025002	15.616000	1086.593018	-3.613750	15.671250	-1.106875
-100.345001	13.542000	1035.109009	-1.763125	8.417500	-2.471875
-97.844002	22.631001	1075.247070	-1.351875	-0.214375	-4.917500
-71.187004	-30.439001	1106.844971	-4.655000	2.878750	-0.013125
-41.358002	-14.640000	1079.395020	-3.806250	2.655625	-0.721875
-68.990997	-40.077000	1096.901978	-2.734375	0.809375	-2.660000
-109.007004	-72.590004	1098.975952	-0.065625	0.459375	2.073750
-76.737999	-63.500999	1082.994019	0.796250	-1.491875	1.513750
-70.333000	-63.074001	1080.066040	0.411250	-2.270625	-1.933750
-50.081001	-36.844002	1018.578003	-0.468125	2.935625	-3.443125
-19.520000	-26.535000	932.507019	6.098750	14.516250	-4.313750
-3.538000	-19.580999	778.238037	6.155625	24.521875	-6.510000
43.066002	-51.605999	640.500000	5.254375	28.691250	-1.220625
38.186001	-51.728001	658.739014	15.295000	29.421875	2.279375
-27.084000	13.359000	721.020020	5.503750	35.056873	-5.289375
-119.316002	-7.686000	729.010986	23.257500	37.878750	-25.475624
-288.286011	54.534000	901.458008	25.051250	21.708750	-21.546875
-201.727005	-14.701000	810.751038	11.195625	-14.853125	-9.148125
-183.792999	85.217003	978.317993	6.759375	-46.016251	6.059375
-31.232000	-16.409000	1014.247009	8.636250	-82.674377	-5.858125
-49.897999	89.304001	1117.764038	25.624374	-75.127502	-6.816250
33.123001	4.331000	1367.254028	46.790627	-44.458752	-1.767500
118.523003	183.792999	1338.218018	62.864376	14.214375	-1.846250
-256.932007	2.745000	1399.950073	8.220625	-1.596875	-10.311875
68.197998	298.290009	1388.786987	-24.714375	-37.139374	-9.769375
18.544001	62.220001	1463.634033	-49.866249	-42.301876	24.854376
53.497002	-93.208000	1231.223999	-13.825000	-66.290001	28.730625
84.180000	-80.031998	1201.822021	18.068750	-43.588123	24.828125
150.609009	43.675999	1279.170044	48.146873	-29.868126	18.348749
198.250000	103.456001	1299.848999	46.908749	-37.121876	10.810625
184.708008	230.153000	1472.052002	44.664375	-38.793125	-1.513750
306.097992	255.834000	1465.281006	23.992500	-38.351250	-2.349375
275.354004	155.977005	1287.526978	8.426250	-9.821875	-10.972500
126.941002	187.270004	1126.243042	-14.560000	13.798750	-27.536249
93.085999	127.734001	1066.036011	-34.741875	14.013125	-31.513124
29.280001	101.565002	1108.125977	-34.903751	-7.525000	-31.036249
137.615997	152.927002	1223.598999	-26.630625	-28.301874	-26.809999
160.369003	127.551003	1244.461060	-26.630625	-28.301874	-13.737500
160.369003	176.167999	1232.749023	-0.581875	-18.641874	-13.737500
224.602005	176.167999	1232.749023	10.946250	-8.321250	-2.581250
219.722000	157.501999	1183.765991	11.042500	3.023125	9.633750
237.167999	113.764999	1110.749023	6.873125	8.036875	11.847500
-259.127991	111.141998	1093.546997	-3.981250	4.392500	0.835625
-263.886017	83.142998	1108.979980	-4.340000	-2.865625	-2.380000
-203.496002	107.177002	1090.680054	-0.096250	-4.873750	-7.914375
-187.757996	95.343002	1090.192017	2.170000	0.100625	-3.342500
-178.669006	87.901001	1060.911987	1.435000	5.258750	-4.458125
-152.134003	116.144005	1014.429993	-0.441875	7.087500	-8.894375
-147.193008	112.362000	920.856018	-0.879375	17.381874	-10.220000
-99.552002	79.422005	766.648010	-6.750625	25.978750	-13.335000
-57.218002	37.393002	691.007996	-11.068750	29.627501	-13.107500
-122.244003	48.068001	608.780029	-1.995000	31.403749	-18.978750
-137.494003	55.570999	692.655029	-3.460625	23.620625	-20.356874
-273.584991	28.853001	785.802002	-7.284375	6.737500	-10.294375
-290.238007	60.268002	867.846985	-6.212500	9.445625	-11.729375
-318.907990	29.158001	977.098022	-1.890000	10.832500	-8.697500
-273.402008	87.351997	1000.460999	-4.493125	-9.931250	-7.240625
-298.960999	-87.230003	1106.661987	10.473750	-37.410625	-1.185625
-159.087997	5.978000	1102.270020	18.396875	-51.485001	14.183750
-159.210007	-13.786000	1157.597046	19.814375	-44.358124	4.589375
-298.167999	-82.532997	1224.331055	16.003750	-30.944374	20.973749
-108.763000	193.613998	1322.175049	18.055626	-7.813750	-6.313125
-327.447998	51.850002	1210.362061	-0.595000	10.727500	-14.472500
-191.417999	55.205002	1211.093994	-4.917500	-14.638750	1.115625
-299.265991	209.962006	1277.401001	-8.723750	-14.078750	-20.348125
-331.108002	40.625999	1263.676025	-23.975000	-25.865000	-22.067499
-290.054993	-122.061005	1281.000000	10.198125	-64.465622	-15.566250
-165.065994	35.563000	1446.310059	22.548750	-102.856247	-29.360624
76.432999	92.232002	1340.170044	21.918751	-79.896248	-7.809375
-28.487000	92.842003	1353.833984	11.519375	-19.403126	2.240000
-41.053001	47.214001	1329.617065	11.738125	-3.766875	-11.965625
-26.230000	91.987999	1224.208984	17.325001	-16.498125	13.085625
-85.095001	62.952000	1211.093994	10.915625	-14.603750	17.460625
-4.331000	79.056000	1166.807983	4.121250	-11.138750	9.695000
-8.296000	85.948997	1140.639038	-4.738125	-9.594375	0.358750
36.112000	72.590004	1183.277954	-6.028750	-4.370625	-12.998125
6.832000	114.680000	1196.942017	-5.534375	-8.246875	-16.712500
-15.799000	76.067001	1162.904053	-7.262500	-4.081875	-14.315000
45.993999	72.468002	1145.823975	-9.708125	1.745625	-15.662500
6.527000	53.802002	1132.891968	-6.811875	4.746875	-14.476875
-251.014999	41.663002	1037.488037	-1.347500	3.850000	2.380000
-251.014999	47.031002	998.020996	0.608125	6.969375	2.380000
-252.052002	47.031002	998.020996	2.296875	9.655625	-4.357500
-226.737000	74.664001	935.374023	5.753125	9.848125	-10.854375
-221.003006	47.763000	886.452026	13.116250	10.898125	-8.487500
-164.334000	53.131001	814.533020	18.392500	12.893125	-5.945625
-173.789001	28.121000	798.612000	25.344376	18.361876	-5.455625
-218.257996	43.798000	819.901001	19.363750	10.071250	-13.125000
-137.188995	15.128000	784.216003	20.960625	-0.503125	-12.149375
-209.046997	-45.262001	810.324036	38.884998	14.568750	-16.865625
-213.744003	105.164001	972.156982	32.830002	14.161875	-25.256874
-282.490997	21.289000	927.566040	13.960625	-12.989375	-17.346874
-169.397003	154.391006	1054.873047	-6.496875	-16.533125	-4.873750
-236.619003	81.069000	1027.057007	-17.202499	5.096875	-3.246250
-296.277008	95.160004	1045.600952	-1.535625	3.889375	-11.851875
-220.454010	127.856003	1043.832031	4.046875	-4.475625	-16.458750
-327.447998	116.083000	1021.322998	-0.975625	-13.160000	-12.547500
-312.442017	210.572006	1175.836060	-3.845625	-35.835625	-11.620000
-302.377014	86.010002	1030.594971	-8.658125	-72.563751	-14.026250
-170.494995	54.778000	1166.807983	-18.497499	-100.970627	-21.100624
56.608002	124.745003	1225.734009	-2.918125	-92.990623	-21.634375
7.198000	174.033005	1389.763062	11.506250	-58.148125	-22.137501
-49.227001	60.512001	1318.149048	12.035625	-37.130627	-17.780001
-38.307999	14.518001	1516.703979	1.990625	-47.971874	5.000625
32.757000	34.952999	1332.239990	37.476250	-27.895000	15.491875
-63.684002	95.526001	1269.776001	42.205624	-2.738750	19.866875
-42.028999	90.158005	1269.654053	27.269375	19.000626	25.357500
-50.202999	154.330002	1211.765015	19.315624	15.194375	21.634375
-94.183998	147.925003	1228.540039	4.418750	-5.932500	11.418750
-10.431000	215.878998	1259.284058	12.438125	-7.940625	1.023750
-93.757004	218.563004	1263.249023	17.963751	-4.497500	10.220000
-107.970001	218.136002	1203.407959	5.958750	-19.538750	1.439375
-15.250000	191.235001	1230.248047	-0.673750	-20.177500	-6.151250
-0.244000	157.380005	1172.847046	-4.847500	-17.128124	-3.097500
60.633999	150.365005	1162.843018	-5.372500	-6.028750	-3.539375
61.000000	164.456009	1146.921997	-5.376875	8.133125	-7.415625
28.792000	153.292999	1140.639038	-1.308125	15.942500	-1.767500
34.587002	193.919006	1141.066040	-2.113125	13.125000	0.083125
-154.268997	54.167999	1136.979004	-10.163125	-1.255625	4.567500
-149.389008	20.007999	1124.291016	0.875000	-9.721250	-2.725625
-114.741005	-2.257000	1138.869995	6.186250	-0.188125	-1.881250
-158.417007	30.622000	1097.207031	4.125625	10.736250	1.316875
-188.612000	-11.407001	1115.750977	1.316875	5.018125	-0.770000
-178.669006	31.232000	1082.018066	-3.701250	4.182500	-6.181875
-211.914001	26.840000	1084.092041	-2.646875	3.023125	-1.561875
-175.009003	29.341000	1071.098999	-0.590625	1.373750	-2.515625
-204.106003	4.331000	1056.764038	1.513750	-0.892500	-0.288750
-176.900009	5.246000	1048.529053	1.010625	-2.520000	-1.666875
-166.285995	9.699000	1002.840027	-0.389375	0.791875	-2.480625
-144.996994	1.891000	963.494995	-3.206875	3.342500	-3.893750
-106.079002	22.997000	887.549988	-9.870000	5.241250	-9.721250
-89.426003	22.570000	871.445984	-7.433125	11.160625	-5.521250
-155.184006	39.528000	876.265015	-4.676875	17.898125	-12.499375
-163.419006	-42.456001	836.371033	-5.153750	9.331875	-17.316250
-156.343002	39.223000	853.634033	-3.718750	-4.480000	-15.456875
-174.337997	-115.167999	823.744019	-1.102500	-0.551250	-15.443750
-159.332001	-24.400000	757.619995	-4.191250	2.401875	-10.841250
-178.852005	17.080000	758.596008	14.083125	-6.011250	-27.540625
-69.905998	-81.374001	865.712036	15.198750	-9.222500	-14.280000
-176.778000	11.468000	992.408997	8.478750	10.045000	-1.045625
-177.022003	31.415001	1156.620972	14.923125	15.015000	-13.413750
-257.541992	18.056000	1131.610962	25.134375	0.393750	-18.488750
-285.175018	71.553001	1155.523071	12.534375	-31.386250	-15.347500
-99.917999	57.950001	1175.652954	8.106875	-53.851875	-22.758751
-131.516006	127.794998	1323.516968	1.750000	-39.392502	-24.500000
-49.227001	-11.834001	1271.849976	-17.241875	-51.060623	-11.410000
-84.790001	27.145000	1455.093994	-6.155625	-61.831875	-20.943125
12.627000	-35.257999	1439.355957	9.117500	-72.834999	-10.815000
100.589005	-35.257999	1399.645020	17.123751	-53.764374	5.210625
66.734001	-36.478001	1327.177002	14.529375	-32.808125	-8.868125
112.728004	-9.150001	1390.433960	22.924999	-14.682500	-4.515000
37.453999	88.023003	1331.812988	33.411877	-1.255625	2.848125
-41.114002	74.176003	1370.974976	33.398750	-6.986875	2.012500
-26.962000	95.586998	1335.167969	26.092501	-12.508125	5.880000
33.062000	61.854000	1243.057983	16.226875	-5.385625	10.941875
20.923000	126.209000	1204.201050	9.926875	0.017500	7.061250
-51.972000	6.710000	1096.780029	-5.285000	6.785625	-7.021875
-63.379002	14.579000	1044.625000	-5.285000	9.060625	-5.639375
-81.374001	-12.993000	978.928040	-4.156250	9.060625	-5.639375
-81.374001	-12.993000	978.928040	-3.346875	9.471875	-5.429375
-89.974998	-18.605000	990.395996	-5.096875	0.704375	-8.378125
-109.433998	-3.416000	997.044983	-9.843750	-7.035000	-13.230000
-18.422001	5.307000	842.410034	-17.193750	5.250000	-4.847500
-39.223000	-7.259000	744.932007	-1.841875	21.061251	-7.603750
31.903000	-48.250999	651.358032	8.001875	15.841875	-17.539375
-61.243999	-71.187004	701.195007	3.316250	9.375625	-13.628125
-92.475998	15.799000	818.315002	-6.934375	-1.216250	-24.425625
-42.395000	-48.434002	1028.032959	-24.959375	-11.694375	-9.830625
-150.059998	56.242001	935.007996	-25.418751	6.160000	-2.900625
-29.158001	-74.603004	1137.406006	-20.693750	-4.366250	-0.879375
-113.642998	-111.446999	1212.313965	-4.620000	-18.913124	11.921875
-142.862000	-51.728001	1112.334961	9.572500	-7.017500	-10.128125
-168.298996	-113.704002	1133.928955	35.188126	-5.696250	-5.967500
-23.729000	-15.799000	1185.901001	39.156250	-10.666250	6.671875
-10.370000	-130.966995	1166.563965	29.093750	-24.863125	-7.091875
-41.602001	-100.528000	1220.182983	28.013124	-2.301250	0.380625
-28.670000	91.805000	1398.912964	43.014999	-16.156876	-4.235000
-3.599000	-27.511000	1222.989014	18.939375	-47.941250	4.208750
-46.909000	20.740000	1387.322998	9.397500	-62.641251	6.693750
88.450005	-97.904999	1369.693970	23.813126	-74.055626	11.147500
29.219000	-65.391998	1485.532959	37.778126	-52.053749	13.720000
40.504002	128.893005	1488.034058	40.652500	-23.476250	20.505625
73.200005	30.683001	1295.701050	34.164375	17.416876	43.435001
-36.844002	141.581009	1349.869019	32.077499	16.865625	23.721251
16.165001	169.335999	1235.067017	14.227500	6.475000	21.446251
-13.420000	160.979004	1195.905029	-2.878750	13.776875	12.604375
30.256001	186.233002	1202.737061	-8.942500	8.159375	-0.175000
-29.524000	140.787994	1179.678955	-5.801250	-9.594375	3.298750
42.821999	181.962997	1108.919067	-7.949375	-12.516875	0.161875
124.623001	197.884003	1115.629028	-15.719375	-9.003750	-4.081875
69.235001	144.020996	1127.524048	-19.101250	-1.098125	-7.555625
61.305000	60.207001	1138.869995	-18.173750	-7.914375	-13.702500
153.354004	103.700005	1040.598999	-15.767500	-24.696875	-13.251875
140.361008	66.063004	1194.501953	-1.566250	-12.888750	-16.703751
-223.382004	-50.386002	1053.042969	-1.163750	0.161875	-2.126250
-214.048996	-43.249001	1049.322021	-1.067500	-3.351250	-4.261250
-196.359009	-58.072002	1032.119995	-1.575000	-5.136250	-8.404375
-190.137009	-101.198997	1058.472046	-5.416250	-6.982500	-7.271250
-155.123001	-92.049004	1053.042969	-5.031250	-8.588125	-7.205625
-92.475998	-104.249001	963.617004	-5.731250	2.598750	-5.285000
-36.295002	-122.487999	815.265015	-4.331250	20.632500	-1.907500
-23.424000	-43.431999	602.984985	-2.690625	47.735626	14.078750
-101.138000	-110.410004	558.820984	-7.153125	63.735001	8.273125
-221.003006	-129.076004	558.028015	-1.080625	52.040627	-13.177500
-181.597000	-90.829002	570.960022	20.448750	32.151875	-30.625000
-244.732010	-104.431999	658.007019	37.200626	6.321875	-31.338125
-164.822006	115.473000	858.757996	32.348751	-23.415001	-16.594376
-117.120003	72.406998	920.734009	20.448750	-56.844376	1.596875
-71.613998	44.225002	1108.248047	6.930000	-54.193127	10.228750
-116.632004	-92.292999	1149.301025	2.948750	-46.186874	3.430000
-118.461998	-174.703995	1142.468994	19.508125	-41.566875	-4.558750
-49.105000	-0.793000	1309.791992	22.833124	-43.483124	-17.972500
-42.028999	-91.072998	1417.640015	62.111874	-20.286875	-9.121875
-346.296997	170.921997	1555.744019	6.265000	-18.003124	7.577500
-295.179016	-106.994003	1555.378052	-13.492500	-58.454376	16.948750
-83.204002	61.610001	1484.801025	21.398125	-74.943748	9.555000
-55.388000	-14.762000	1396.473022	12.525625	-54.136250	3.920000
-43.310001	-18.177999	1368.901001	21.122499	-29.185625	-14.638750
-77.470001	154.208008	1426.424072	23.721251	-22.640625	-20.116249
-14.030000	41.114002	1343.769043	22.036875	-2.340625	3.815000
-129.990997	221.613007	1340.536011	23.148125	29.443750	15.566250
-188.307007	196.115005	1312.109985	0.542500	20.405001	23.673124
-41.663002	85.400002	1243.363037	-13.352500	2.012500	10.167500
42.639000	95.891998	1165.222046	-30.834999	2.883125	-3.631250
-42.517002	5.917000	1068.354004	-39.195625	28.651875	-12.696250
-75.029999	2.196000	1124.535034	-30.104376	21.227501	-20.479376
-52.887001	11.041000	1102.575073	-11.545625	-5.035625	-18.878124
33.977001	45.811001	1099.463989	-2.795625	-19.376875	-14.013125
43.126999	32.208000	1105.259033	0.070000	-11.287500	-8.579375
32.879002	12.566000	1110.993042	-3.325000	1.855000	-4.781875
-8.723001	13.542000	1142.041992	-1.225000	8.426250	-5.512500
-28.304001	11.834001	1101.477051	-2.218125	3.784375	-1.885625
-251.014999	-133.468002	1060.424072	-1.181250	-1.706250	-10.206875
-247.721008	-126.941002	1081.224976	2.760625	-4.536875	-8.793750
-260.042999	-117.120003	1066.157959	3.171875	2.673125	-4.812500
-241.255005	-135.419998	1063.962036	-0.284375	4.060000	-2.257500
-262.178009	-112.056999	1055.848999	-3.115000	2.953125	-1.216250
-261.567993	-124.867004	1043.282959	-1.995000	4.248125	-4.322500
-227.102997	-97.234001	967.093994	0.367500	6.628125	-4.865000
-210.084000	-97.844002	904.142029	-1.736875	10.027500	0.380625
-186.354996	-69.174004	753.533020	-8.802500	12.425000	3.333750
-232.044006	-88.084000	656.116028	-8.802500	15.050000	-6.295625
-218.990005	-73.078003	615.062988	-16.331875	15.050000	-6.295625
-218.990005	-73.078003	664.351013	-18.655001	16.436874	-31.250626
-242.231003	-112.301003	664.351013	-19.459999	8.986250	-42.279999
-233.569000	-70.943001	654.346985	2.288125	15.019375	-33.582500
-106.811005	-123.525002	772.992004	13.181875	4.488750	-20.230000
-243.817001	-67.649002	796.965027	17.596251	-8.575000	-5.945625
-64.965004	-113.459999	761.280029	25.541250	-12.127500	-15.828750
-194.102005	-123.647003	909.692993	39.948124	9.165625	-9.200625
-169.275009	-117.303001	1161.867065	26.700624	8.907500	-6.028750
-285.662994	-86.986000	1193.281982	27.689375	11.510625	-11.786250
-494.649017	-131.516006	1669.813965	13.260625	-59.075626	-14.319375
-365.084991	-68.197998	1667.374023	24.639999	-105.393753	-8.207500
-330.192993	-2.623000	1643.889038	22.006250	-89.031250	15.106875
-234.362000	-93.695999	1627.602051	29.172501	-75.884377	21.288750
-170.373001	-101.198997	1488.644043	24.587500	-49.603748	1.846250
-213.805008	-85.400002	1395.313965	12.328750	-8.890000	-2.703750
-127.673004	-68.685997	1292.773071	6.706875	3.696875	1.273125
-152.317001	-66.978004	1180.716064	-2.835000	5.315625	-3.381875
-94.183998	-45.567001	1125.510986	-4.983125	2.043125	1.404375
-57.767002	-45.139999	1090.924072	-5.495000	-0.586250	2.528750
-51.545002	-25.802999	1122.765991	-2.515625	-4.073125	4.335625
1.891000	13.725000	1099.402954	5.035625	-0.214375	9.585625
-73.626999	9.760000	1097.268066	9.528750	4.208750	11.405625
-44.164001	-0.915000	1089.399048	8.627500	-4.440625	11.781875
-61.243999	11.834001	1063.291016	7.424375	-6.676250	7.577500
-48.922001	-2.806000	1103.185059	6.426875	-8.907500	6.426875
-30.927000	13.786000	1110.870972	5.188750	-6.260625	0.861875
-74.664001	30.378000	1143.750000	1.859375	-3.451875	1.251250
