A_X[mg]	A_Y[mg]	A_Z[mg]	G_X[dps]	G_Y[dps]	G_Z[dps]	
-138.835999	157.257996	1115.750977	1.850625	-0.013125	-0.783125
-132.309006	154.695999	1104.282959	0.371875	0.083125	-1.168125
-143.899002	173.789001	1106.296021	0.371875	-2.318750	-0.555625
-130.173996	151.097000	1091.046021	-2.117500	-2.318750	-0.555625
-130.173996	151.097000	1091.046021	-2.568125	-2.353750	-0.896875
-128.587997	165.919998	1087.995972	-1.570625	-1.859375	-1.925000
-142.740005	142.923004	1094.156982	0.896875	0.883750	-1.299375
-156.891998	168.848007	1084.275024	2.559375	0.415625	-3.902500
-146.949005	154.695999	1090.009033	2.266250	0.035000	-2.445625
-133.956009	163.175003	1053.409058	0.310625	1.653750	-1.343125
-152.988007	172.569000	1031.937012	1.426250	-3.976875	-2.813125
-129.625000	172.630005	934.398010	0.608125	-2.244375	-3.473750
-49.532001	114.131004	726.692993	1.610000	5.232500	-4.974375
-26.901001	97.112000	575.656982	7.533750	11.081875	-11.987500
-53.985001	162.320999	429.989014	-8.290625	6.816250	-10.556875
14.823000	88.999001	377.834015	-22.553125	7.113750	2.760625
-83.997002	180.072006	526.612976	-20.173124	18.239374	9.712500
24.400000	44.957001	609.572998	-28.879375	25.606874	19.705000
-50.386002	55.083000	904.020020	-2.117500	36.964375	29.120001
-152.072998	153.658997	987.163025	-7.153125	-21.813749	5.508125
-109.678001	-2.928000	1073.295044	-4.558750	-74.751251	32.816875
-30.378000	272.914001	1281.915039	-1.036875	-97.881874	-4.418750
57.950001	233.324997	1297.592041	-10.775625	-125.068123	-38.806252
283.101013	26.230000	1284.477051	-13.400625	-107.974998	-34.208126
481.412018	92.537003	1456.436035	12.656875	-93.191872	-30.170000
287.859009	222.955002	1262.273071	19.267500	-77.682503	-27.566875
387.532990	164.395004	1613.145020	14.157500	-85.430626	-7.638750
430.660004	218.684998	1620.221069	20.050625	-99.881248	-9.804375
373.015015	283.467010	1618.452026	42.770000	-86.716873	3.696875
520.513000	226.492996	1626.321045	85.697502	-45.259377	-7.901250
519.720032	420.960999	1499.989990	110.643753	1.461250	-3.535000
306.158997	541.070007	1404.586060	55.125000	16.283751	4.278750
204.899002	441.213013	1172.541992	9.948750	2.953125	5.324375
349.591003	427.731995	1180.899048	-22.977501	4.165000	0.936250
376.369995	307.867004	1104.832031	-27.260626	16.318750	-5.936875
370.575012	239.181000	1061.461060	-15.168125	22.610001	-2.135000
-255.956009	10.675000	929.213013	-8.172500	13.615000	-0.498750
-226.309998	26.718000	827.221008	-11.042500	13.055000	-1.575000
-178.973999	31.415001	719.190002	-6.868750	17.403749	-2.222500
-228.384003	-46.360001	703.940002	-8.220625	13.238750	0.945000
-164.944000	68.869003	710.101013	-15.942500	11.882500	9.314375
-206.363007	41.297001	645.013977	-26.989374	29.242500	9.948750
-257.664001	-35.868000	756.156006	-33.678749	44.607498	21.870625
-159.027008	34.342999	695.278015	-43.408749	38.211250	21.984375
-393.328003	-48.312000	756.643982	-45.298752	26.879999	22.395624
-272.182007	-131.455002	771.161987	-40.595627	-21.857500	22.176874
-544.791016	-81.191002	1093.242065	-19.989374	-50.636250	16.489374
-246.013000	-21.106001	1067.072998	15.767500	-102.453751	4.913125
-255.406998	-78.873001	1131.733032	19.166876	-116.156250	-2.082500
-101.138000	74.054001	1218.353027	2.012500	-108.106247	-25.121250
-82.777000	-57.278999	1123.131958	-3.688125	-100.555000	-39.716251
-32.269001	-66.184998	1414.468018	11.291875	-71.019379	-33.529999
16.896999	-122.305000	1365.057983	15.916250	-43.203125	-34.396252
-76.982002	-152.012009	1484.130005	25.116875	-19.490625	-16.852501
-31.964001	-85.339005	1469.245972	35.468124	-26.320000	-16.030001
-49.410000	-57.950001	1364.630981	39.724998	-37.432499	-15.286250
88.450005	20.984001	1403.915039	36.172501	-52.530624	-0.630000
136.762009	-26.840000	1396.229004	21.857500	-40.219376	-10.836875
133.468002	45.201000	1350.906006	16.953125	-31.832500	-13.558125
157.197006	17.629000	1355.603027	1.356250	-31.421249	-7.328125
125.293999	20.252001	1281.792969	-3.399375	-24.963751	-6.068125
109.922005	-17.385000	1229.881958	-8.076250	-24.701250	1.386875
167.750000	43.798000	1168.515991	-4.869375	-27.448750	4.134375
188.184998	-2.928000	1219.817017	5.079375	-19.083750	2.095625
191.966995	57.950001	1189.255981	5.473125	-10.696875	-0.997500
202.886002	52.704002	1158.145996	5.473125	-10.696875	1.456875
202.886002	60.207001	1157.901978	6.737500	-2.983750	1.456875
204.594009	60.207001	1135.393066	2.756250	2.323125	1.391250
170.190002	56.486000	1135.393066	1.251250	3.395000	2.279375
210.266998	58.681999	1125.023071	0.437500	1.028125	3.206875
191.417999	61.915001	1104.709961	0.161875	2.870000	4.768750
218.624008	41.053001	1121.057983	2.953125	1.023750	4.134375
209.656998	62.769001	1096.597046	2.800000	3.071250	3.036250
221.430008	54.839001	1113.128052	5.910625	5.390000	3.526250
-266.143005	-57.035000	1096.230957	-3.259375	-0.240625	-0.988750
-279.380005	-33.000999	1086.714966	0.323750	-0.993125	-1.500625
-284.260010	-34.892002	1051.884033	-0.227500	2.454375	-2.025625
-272.914001	-55.815002	996.557007	3.727500	4.773125	-3.749375
-287.798004	-30.195000	975.085022	4.672500	-0.078750	-4.655000
-260.713989	-10.675000	900.054993	-0.966875	-0.074375	-4.991875
-185.074005	-32.390999	766.343018	-4.388125	4.243750	-9.156875
-134.139008	-38.003002	663.863037	5.643750	7.301875	-6.881875
-68.990997	-2.257000	586.453979	11.515000	7.634375	-4.685625
-170.861008	8.540000	516.364990	-9.800000	28.765625	1.745625
-259.799011	-3.965000	816.119019	-17.613750	47.236874	7.538125
-275.110016	39.894001	718.824036	-1.028125	42.131248	12.792500
-289.018005	-80.093002	895.419006	-6.186250	15.216250	20.238750
-285.541016	42.821999	905.606018	-5.656875	-9.620625	28.485624
-367.830017	-72.895004	1033.401001	4.401250	-42.971249	28.866249
-261.201996	32.574001	1065.426025	18.900000	-68.897499	20.606251
-205.143005	134.139008	1081.530029	16.244375	-97.676247	0.293125
-112.849998	-145.302002	1180.289062	16.646875	-97.951874	-5.783750
-8.540000	120.963005	1282.281006	12.862500	-92.137497	-3.801875
-157.197006	56.364002	1280.755981	22.260000	-83.938751	-20.483749
25.375999	75.579002	1371.645996	20.947500	-58.196251	-16.257500
67.099998	164.699997	1527.927979	19.569374	-40.945625	-12.578125
26.535000	103.456001	1316.562988	1.863750	-25.545626	-14.875000
-57.157001	-47.640999	1618.269043	-4.313750	-6.868750	-7.529375
-25.742001	103.700005	1344.135010	-5.324375	-31.832500	-5.639375
22.082001	-0.549000	1340.291992	-5.066250	-40.556252	-5.985000
144.203995	45.993999	1169.614014	7.910000	-32.865002	-8.080625
81.129997	22.753000	1249.584961	2.861250	-30.117500	-3.793125
133.406998	44.347000	1327.604004	-6.641250	-48.916874	-5.355000
184.768997	39.771999	1187.303955	-3.486875	-42.761250	-8.369375
173.300995	61.549000	1159.915039	-5.315625	-27.356874	-8.640625
202.154007	134.809998	1124.718018	11.073125	-20.133751	0.205625
222.710999	136.639999	1230.125977	9.983750	2.485000	-0.371875
119.987000	54.778000	1163.148071	-0.345625	14.743750	-4.055625
95.343002	90.341003	1138.198975	-7.201250	-6.588750	-2.655625
200.201996	6.405000	1170.956055	-12.302500	-18.720625	-4.799375
161.466995	-32.390999	1210.178955	-6.448750	-14.511875	-3.478125
215.757004	17.873001	1203.591064	2.126250	-5.831875	-4.720625
-394.670013	-128.587997	920.734009	-6.838125	-4.410000	1.058750
-368.806000	-196.725006	983.197998	-2.520000	-7.980000	2.375625
-352.458008	-131.576996	978.074036	-2.450000	-10.648750	-0.560000
-305.488007	-169.518997	993.324036	-1.531250	-13.269375	-1.592500
-347.639008	-143.837997	1007.842041	3.626875	-7.490000	-0.923125
-332.816010	-144.447998	1030.717041	1.023750	-7.231875	2.436875
-239.119995	-162.382004	967.704041	0.975625	-6.470625	1.824375
-207.033997	-143.167007	860.100037	8.334375	0.227500	-4.230625
-197.945007	-127.368004	771.833008	13.741875	3.871875	-7.647500
-221.857010	-88.754997	706.867981	13.790000	4.388125	-5.057500
-234.544998	-99.125000	773.296997	15.378125	-3.298750	-4.265625
-268.522003	-95.831001	792.817017	7.918750	-9.817500	-0.371875
-204.594009	-113.338005	861.869019	4.068750	-21.756874	-1.172500
-240.462006	-118.766998	911.523010	7.280000	-18.690001	-12.258750
-243.634003	-71.736000	903.593018	5.127500	-15.500625	-22.045626
-221.735001	-74.176003	991.554993	4.790625	-17.539375	-10.911250
-219.966003	-70.820999	983.380981	-12.893125	-32.296249	-7.953750
-191.052002	-169.458008	1080.249023	-13.925625	-33.013748	4.121250
-149.328003	-90.158005	1121.790039	-8.413125	-35.209999	0.507500
-166.529999	-170.311996	1081.957031	5.792500	-30.699375	-3.968125
-105.408005	-159.880997	1204.140015	19.455626	-35.070000	5.543125
-103.578003	-109.373001	1132.221069	33.035625	-44.314377	-14.398125
-52.643002	-35.501999	1052.859985	41.404999	-31.591875	-4.309375
31.293001	-41.418999	1250.622070	30.515625	-25.865000	-4.641875
-151.585007	-69.357002	1157.536011	31.447500	-13.549375	-18.803749
-84.485001	-3.721000	1288.990967	36.071877	-1.859375	0.306250
-49.227001	-0.915000	1165.709961	39.698750	-22.798124	3.924375
-62.830002	-44.103001	1287.343994	43.662498	-36.172501	15.067500
57.462002	48.312000	1218.474976	52.950626	-46.580624	22.207500
33.244999	33.916000	1232.687988	55.606251	-37.253124	15.890000
108.092003	200.445999	1249.280029	55.794376	-35.752499	14.678125
88.816002	164.516998	1159.182983	44.642502	-28.861876	8.933750
114.680000	201.971008	1302.289062	42.586250	-19.919374	-1.986250
70.698997	224.663010	1113.372070	29.036875	-17.084375	-9.533125
-55.754002	179.706009	1402.084961	21.726250	-25.987499	2.205000
178.119995	281.636993	1270.935059	22.671249	-52.889374	-3.250625
147.619995	261.324005	1152.717041	13.304375	-49.962502	-1.697500
153.903000	242.535995	1195.234009	10.968125	-41.383125	-1.771875
-244.000000	39.771999	1056.947021	-2.078125	-2.730000	0.354375
-254.186996	45.688999	1066.218994	-0.787500	-0.581875	2.095625
-223.626007	52.764999	1036.511963	-1.273125	-4.777500	-1.483125
-215.025009	54.167999	963.617004	0.175000	-1.085000	-2.555000
-266.082001	38.063999	974.658020	3.163125	3.027500	1.653750
-245.768997	16.896999	948.976990	6.330625	0.691250	2.030000
-180.499008	28.304001	822.158020	8.999375	-1.268750	-3.106250
-136.029999	49.471001	743.955994	14.393750	-4.226250	-5.722500
-157.197006	9.333000	749.385010	13.120625	-4.466875	-5.254375
-181.597000	95.098999	842.531982	9.301250	-11.974375	-0.056875
-191.600998	10.919000	882.853027	11.370625	-26.595625	-5.267500
-145.302002	69.662003	958.554016	11.370625	-30.309999	-1.500625
-87.596001	138.042999	897.554016	9.983750	-30.309999	-1.500625
-87.596001	-4.148000	1075.369019	3.753750	-37.900623	-5.967500
-48.129002	-4.148000	1075.369019	-5.271875	-22.102501	-0.840000
-56.059002	236.985001	1117.764038	-1.631875	-29.391251	3.994375
-82.289001	30.622000	1119.472046	-12.595625	-35.441875	2.524375
-8.052000	164.151001	1181.203979	-0.546875	-34.343750	9.747500
-22.326000	97.234001	1079.273071	-0.612500	-58.117500	2.708125
58.865002	45.506001	1095.803955	-4.125625	-58.690624	5.735625
70.515999	167.139999	1070.123047	-1.413125	-63.301876	4.563125
91.927002	-25.681000	1013.637024	-18.948126	-63.039375	-13.247500
155.428009	237.533997	1174.677002	-17.780001	-36.518124	1.544375
231.678009	86.803001	1124.596069	-22.806875	-9.922500	-19.114374
97.417000	-146.766006	1227.930054	-40.114376	10.994375	-29.557501
112.849998	107.055000	1270.630005	-16.240000	17.863125	-15.780625
143.472000	-51.362000	1284.660034	7.319375	-4.055625	-17.740625
209.779007	43.920002	1160.463989	32.121250	-18.480000	-12.105625
161.893997	68.014999	1270.264038	34.899376	-33.871250	-2.598750
273.584991	111.141998	1214.204956	27.212500	-42.463749	-2.038750
221.490997	53.008999	1289.296021	20.978125	-40.993752	6.938750
283.894012	17.446001	1362.252075	7.826875	-32.624374	2.253125
122.792999	35.136002	1253.550049	10.285625	-19.175625	3.539375
218.684998	20.130001	1343.829956	6.991250	-16.922501	-0.958125
192.455002	70.820999	1192.123047	9.471875	-20.129375	2.699375
291.885010	34.831001	1355.480957	9.966250	-22.478750	1.404375
246.440002	123.464005	1310.645996	9.191875	-12.906250	-8.793750
186.660004	184.708008	1123.498047	6.671875	-2.926875	-6.724375
-207.949005	-125.721001	1024.129028	1.295000	1.715000	-2.073750
-178.729996	-97.722000	977.952026	4.471250	-2.152500	-3.460625
-234.057007	-109.861000	976.854004	2.008125	1.526875	-5.661250
-206.180008	-118.156998	973.682007	0.595000	-0.774375	-3.220000
-157.501999	-90.524002	957.090027	1.758750	-6.706875	-2.423750
-214.292999	-128.039001	987.346008	2.231250	-4.786250	-2.117500
-112.423004	-93.513000	911.218018	2.843750	-6.956250	-6.160000
-165.981003	-84.729004	913.841003	3.683750	-6.571250	-7.166250
-95.098999	-93.147003	865.346008	1.649375	-9.331875	-0.520625
-173.362000	-108.458000	971.486023	4.510625	-17.670626	0.564375
-82.106003	-110.776001	920.856018	2.835000	-26.731251	0.621250
-35.257999	-75.945000	1051.701050	8.260000	-33.403126	-1.330000
-20.862000	-58.926003	968.009033	-0.004375	-12.403125	-13.181875
24.400000	-92.598000	1038.769043	-1.710625	-2.091250	-17.403749
-119.559998	-57.889000	1040.537964	-5.635000	13.566875	-11.567500
-63.379002	-140.178009	1052.615967	-19.022499	0.188125	-7.122500
-138.958008	-203.617996	1100.806030	-8.400000	-6.514375	5.254375
-116.083000	-86.070999	1120.753052	4.760000	-6.011250	5.880000
-81.191002	-176.412003	1117.276001	22.365000	-17.657499	-2.642500
-191.052002	-32.635002	1089.765015	34.505627	-18.265625	7.437500
-12.139000	-49.166000	1091.656006	38.762501	-26.263124	1.190000
-3.965000	-118.401001	1168.150024	33.232498	-34.658749	-10.421250
-62.159000	33.428001	1152.167969	36.277500	-38.088749	12.936875
28.548000	10.187000	1252.025024	26.871250	-45.136875	7.043750
41.480000	-18.422001	1133.562988	39.042500	-29.491875	-6.667500
44.347000	100.162003	1261.296997	42.748123	-18.270000	16.664375
147.253998	115.412003	1300.093018	42.770000	-17.294374	5.989375
70.515999	48.434002	1278.499023	49.896873	-6.418125	7.161875
96.989998	134.016998	1406.964966	35.971249	-2.314375	10.163125
13.115000	127.551003	1198.467041	17.775625	-4.436250	2.738750
39.284000	150.487000	1277.583984	11.606875	-21.061251	3.578750
86.375999	168.360001	1103.734009	8.653750	-48.488125	7.621250
122.670998	65.209000	1191.146973	9.695000	-58.143749	13.116250
226.188004	167.078995	1226.649048	7.783125	-60.514999	6.230000
246.378998	140.238998	1241.228027	10.351250	-44.248749	1.181250
265.777008	164.151001	1311.561035	10.062500	-23.664375	-10.688125
195.382996	186.964996	1244.094971	7.966875	-22.014999	-5.888750
220.942001	225.029007	1222.500977	3.495625	-17.443125	-1.653750
-306.524994	-126.880005	1015.101013	3.355625	6.326250	-2.511250
-287.005005	-112.239998	1018.760986	1.032500	2.506875	-2.288125
-305.610016	-97.599998	939.522034	-3.311875	3.075625	-4.130000
-326.106018	-96.868004	913.109009	-1.452500	3.268125	-2.905000
-296.704010	-104.371002	891.759033	-4.488750	-2.126250	-4.252500
-297.679993	-83.997002	860.466003	-2.117500	0.783125	-2.721250
-336.781006	-131.759995	917.013000	-3.408125	-2.082500	-0.105000
-216.794006	-95.343002	875.289001	-2.476250	-8.225000	-0.560000
-308.660004	-122.305000	910.669006	3.176250	-4.571875	-3.473750
-216.794006	-130.845001	925.492004	5.236875	-18.217501	-5.674375
-248.148010	-107.299004	937.692017	6.321875	-28.358749	-10.552500
-196.115005	-97.539001	980.880005	13.378750	-29.251249	-15.238125
-147.253998	-114.557999	996.862000	13.348125	-30.279375	-18.956875
-161.162003	-134.199997	1024.556030	5.433750	-16.183125	-15.868125
-88.206001	-31.659000	1026.751953	19.722500	-17.036249	-12.831875
-127.917000	-146.460999	1020.103027	15.618750	-14.809375	-4.178125
-101.870003	-24.278000	1040.721069	0.205625	-16.318750	2.436875
-99.125000	-89.181999	992.104004	-0.161875	-13.790000	3.753750
-192.516006	-82.899002	1093.912964	-22.203125	-3.644375	16.769375
-86.986000	-63.744999	1132.221069	-7.936250	-1.995000	22.268749
-174.520996	-152.195007	1077.687012	-7.118125	0.446250	7.630000
-147.376007	-148.291000	1219.145996	3.141250	-6.348125	2.821875
-196.298004	-2.623000	1114.286987	24.447500	-34.138126	-6.925625
-143.654999	-205.692001	1159.854004	26.525625	-39.230625	-6.540625
-107.420998	-83.204002	1202.310059	33.180000	-43.789375	3.421250
-22.021000	7.686000	1169.735962	42.660625	-53.361874	0.144375
93.147003	-22.691999	1227.076050	50.806873	-53.484375	-5.748750
21.410999	37.088001	1188.828979	45.136875	-34.846874	-2.839375
122.792999	107.787003	1222.073975	59.141251	-29.575001	-8.277500
101.198997	154.818008	1086.593018	54.814377	-22.010626	2.187500
51.850002	121.634003	1233.603027	49.301876	-21.266874	-3.215625
139.934006	181.292007	1140.212036	37.563751	-27.719999	-8.631875
61.243999	159.514999	1205.542969	26.359375	-31.206875	5.263125
233.386002	206.180008	1183.461060	25.698750	-22.754375	-2.747500
99.735001	206.546005	1174.799072	21.113750	-26.004999	3.141250
97.722000	287.859009	1283.073975	21.691250	-50.736874	9.620625
304.695007	286.455994	1205.726074	18.808125	-57.815624	8.093750
180.559998	219.356003	1230.431030	21.223125	-34.439999	-3.863125
-280.843994	20.434999	1035.047974	11.900000	5.735625	-0.109375
-273.341003	20.496000	996.191040	8.001875	6.768125	3.224375
-295.179016	22.691999	1022.238037	6.199375	-1.391250	5.105625
-274.561005	42.882999	1030.717041	6.015625	-6.015625	3.648750
-260.226013	52.154999	1047.004028	5.162500	-6.405000	2.428125
-271.023010	62.220001	1083.421021	5.306875	-7.625625	3.504375
-217.221008	69.235001	1091.350952	5.070625	-8.277500	2.887500
-221.063995	71.796997	1092.998047	5.451250	-2.800000	3.171875
-216.854996	66.551003	1064.083984	4.200000	-0.424375	-2.520000
-191.845001	89.364998	1025.227051	4.379375	-2.410625	-2.541875
-110.593002	76.006004	880.718018	2.331875	7.682500	-5.346250
-141.886002	40.748001	769.942017	3.583125	11.528125	-8.929375
-150.731003	98.942001	715.713013	4.598125	4.414375	-11.090625
-38.125000	55.205002	549.304993	1.509375	5.446875	-21.853125
-141.459000	-130.540009	524.905029	10.460625	17.355625	-12.569375
-4.026000	-17.873001	427.061005	26.333124	13.186250	-3.478125
-112.849998	115.107002	334.157990	31.053749	10.972500	-22.561874
-119.133003	94.916000	573.705017	18.103750	-15.850625	-14.791875
-117.852005	187.514008	782.934998	-11.865000	-42.848751	-18.313749
-159.637009	132.065002	939.643982	-5.131875	-27.138124	-21.726250
-186.598999	251.320007	1285.575073	37.778126	-44.961876	-22.273125
-141.764008	344.649994	1173.274048	54.919376	-82.643753	-26.075001
-3.904000	216.671997	1452.531982	47.845001	-84.813751	19.066250
258.152008	364.475006	1667.008057	32.554375	-71.220627	18.108126
-54.900002	322.628998	1683.356079	21.542500	-35.551250	-2.603125
-124.988998	417.850006	1648.219971	31.482500	-18.042500	11.038125
-61.854000	422.791016	1299.360962	-2.541875	-38.828125	26.420626
27.450001	141.397995	1671.521973	9.353750	-48.908127	28.266874
69.540001	378.748993	1431.364990	13.702500	-83.059372	10.250625
263.337006	359.045990	1389.763062	20.361250	-96.635002	9.940000
294.507996	311.588013	1291.431030	23.861250	-60.891251	-0.726250
196.785995	420.167999	1321.138062	19.031250	-41.404999	-0.910000
244.488007	354.898010	1219.695068	19.031250	-23.979376	5.127500
241.559998	357.277008	1139.723999	17.924376	-15.036875	8.701875
219.173004	384.544006	1031.754028	10.115000	-14.800625	12.831875
315.065002	322.690002	1095.437988	-1.785000	-18.392500	11.550000
409.432007	320.494019	1130.025024	-20.348125	-11.357500	-16.743126
326.289001	314.333008	1128.134033	-20.111876	1.137500	-30.025625
-347.578003	163.053009	876.752991	-3.548125	11.725000	-2.498125
-338.489014	157.684998	883.463013	-5.490625	8.763125	3.465000
-410.713013	113.642998	953.247009	-6.693750	7.678125	2.515625
-388.020996	139.690002	952.575989	-10.810625	5.818750	-2.240000
-434.442017	87.535004	953.552002	-7.236250	3.959375	-0.665000
-343.552002	119.681999	912.499023	-7.280000	-1.758750	-5.919375
-305.061005	86.742004	806.541992	-3.036250	0.608125	-5.932500
-296.277008	37.942001	672.158997	4.847500	2.003750	-3.675000
-234.727997	23.424000	454.816010	1.610000	2.156875	-9.345000
-217.160004	-22.448000	298.290009	3.075625	3.456250	-12.289375
-180.987000	153.292999	290.908997	13.746250	-4.830000	-14.949375
-122.610001	26.474001	421.083008	29.614374	-22.330000	-2.222500
-43.920002	217.343002	635.010010	33.040001	-37.515625	5.565000
-40.320999	213.134003	708.332031	5.801250	-32.545624	12.446875
-52.399002	214.475998	1020.530029	0.363125	-4.108125	-2.493750
-167.322998	165.798004	884.439026	-23.187500	-30.279375	-10.206875
-278.648010	201.727005	1400.499023	2.178750	-89.280624	1.421875
-55.693001	228.139999	1375.733032	35.174999	-104.894997	9.555000
-125.233002	305.244019	1672.010010	39.689999	-120.601250	53.186874
63.989002	344.101013	1571.055054	68.486252	-121.716873	35.463749
-44.164001	459.024994	1486.020996	67.676872	-51.183125	8.977500
-184.464005	599.874023	1505.906982	7.227500	-38.779999	8.058750
119.133003	328.485016	1295.701050	-23.730000	-21.490000	-2.349375
-0.427000	225.272995	1379.026978	-6.370000	2.576875	-7.770000
-46.360001	319.884003	1359.812012	9.537500	-39.676876	14.065625
109.800003	354.837006	1250.865967	23.121876	-58.248749	26.665625
147.436996	452.681000	1275.448975	23.563749	-52.591873	27.317499
113.826004	368.989014	1399.583984	23.130625	-48.190624	26.210625
151.707001	334.402008	1270.874023	19.700624	-33.888748	9.471875
114.862999	390.826996	1173.640015	15.404375	-16.104376	4.182500
160.917999	373.929993	1080.553955	8.054375	-10.443125	9.436875
194.772995	364.475006	1085.250977	2.996875	-5.740000	14.389375
270.473999	383.994995	1118.008057	4.090625	-3.692500	9.848125
277.733002	382.226013	1037.975952	4.886875	4.865000	3.451875
285.053009	393.450012	1069.573975	3.158750	9.279375	5.906250
244.548996	361.242004	998.630981	4.029375	18.305000	2.852500
200.507004	356.850006	992.408997	4.917500	11.423125	1.238125
242.048004	382.470001	1022.970032	7.323750	-1.776250	3.241875
-502.274017	72.223999	972.950012	0.231875	-9.349375	3.906875
-479.033020	183.915009	990.822998	5.560625	-8.330000	0.590625
-472.079010	128.527008	1006.377991	9.568125	-10.727500	5.792500
-449.631012	155.306000	1032.485962	2.345000	-5.530000	2.520000
-431.941010	165.492996	1016.382019	2.130625	-4.125625	-2.261875
-368.928009	134.199997	962.518982	0.927500	-1.876875	-2.673125
-314.455017	145.302002	843.447021	-3.128125	1.828750	-7.892500
-235.582001	74.481003	639.890015	-3.535000	12.740000	-12.884375
-278.953003	68.137001	480.313995	4.287500	22.330000	-12.595625
-275.415009	25.559000	410.225006	9.095625	6.304375	-12.009375
-354.287994	-5.978000	495.136993	11.729375	-8.575000	-6.041875
-226.126999	168.298996	572.789978	29.163750	-19.661249	-6.138125
-427.976013	-6.954000	673.257019	32.733749	-27.671875	-7.971250
-223.686996	259.188995	839.604004	13.864375	-40.162498	-10.224375
-380.761993	85.522003	845.643005	11.746875	-52.071251	-5.201875
-217.464996	415.471008	1192.123047	33.578125	-65.266251	-1.575000
-55.815002	346.907013	927.200012	23.550625	-53.514999	-12.486250
-253.210999	230.763000	1160.219971	-5.110000	-16.056250	5.600000
-223.382004	369.537994	1051.274048	-10.469375	-41.234375	8.146250
-171.959000	137.860001	1109.102051	-5.241250	-93.156876	32.309376
-92.354004	374.113007	1183.765991	12.971875	-120.920624	58.327499
15.128000	277.062012	1267.275024	27.426874	-116.480003	52.749374
150.182007	219.050995	1591.002075	28.385000	-101.749374	40.801250
3.965000	609.328979	1362.557007	-5.595625	-89.092499	24.963751
188.977997	254.003998	1470.099976	14.192500	-27.820625	9.305625
81.251999	473.665009	1404.463989	14.555625	-17.508751	0.485625
109.433998	247.354996	1537.139038	34.059376	-39.729374	13.982500
197.518005	472.933014	1523.170044	33.118752	-60.580624	16.905001
163.236008	443.592010	1264.713013	16.388750	-42.139999	16.848125
193.248001	337.696014	1384.822021	6.921250	-21.599375	20.754999
170.007004	317.932007	1254.098999	3.793125	-19.223749	8.382500
164.272995	357.520996	1181.265015	-6.212500	-24.692499	-1.995000
224.846008	330.315002	1124.901001	-10.150000	-12.123125	-7.962500
239.973999	310.612000	1106.417969	-10.150000	-12.123125	-7.962500
239.973999	310.612000	1069.025024	-0.402500	2.883125	-3.836875
267.912018	319.457001	1069.025024	6.304375	7.402500	1.780625
279.868011	337.757019	1028.520996	7.398125	7.468125	2.353750
287.371002	318.664001	1026.141968	3.298750	2.891875	-0.695625
-403.636993	91.622002	890.905029	-10.793125	8.041250	4.313750
-427.792999	60.389999	927.992981	-8.400000	-1.461250	-2.957500
-421.937012	106.262001	931.775024	-9.012500	-4.690000	-2.493750
-425.048004	79.361000	959.652039	-9.191875	-1.885625	2.371250
-411.506012	62.952000	979.111023	-9.065000	-7.879375	5.547500
-412.481995	90.524002	988.139038	-6.177500	-8.071875	5.245625
-356.300995	77.897003	925.614014	3.311875	-6.873125	0.923125
-258.945007	107.725998	795.501038	9.205000	-6.908125	-1.894375
-213.622009	82.289001	619.455017	7.590625	-2.156875	-5.044375
-200.324005	52.459999	504.897003	5.775000	8.693125	-4.869375
-170.800003	83.936005	438.223999	2.296875	-6.195000	-0.673750
-188.977997	-24.644001	488.061005	2.108750	-14.459375	2.043125
-180.255005	161.162003	555.526978	3.653125	-7.323750	-4.602500
-212.158005	37.209999	680.882019	-1.452500	-24.241875	3.211250
-216.184006	143.106003	953.002991	-17.303125	-38.744999	7.590625
-193.309006	100.710999	964.653992	6.632500	-47.796875	-1.312500
-251.869003	231.494995	1241.105957	20.986876	-64.693123	4.895625
-129.686005	232.531998	1244.461060	12.661250	-77.927498	20.702499
-165.554001	207.095001	1264.468994	18.475624	-87.736252	34.453125
-96.929001	122.915001	1174.555054	14.861875	-78.172501	21.735001
40.748001	160.125000	1330.410034	-4.637500	-63.511875	24.543751
-30.195000	129.320007	1643.766968	2.664375	-77.599373	12.635000
92.475998	241.011002	1378.599976	7.428750	-45.998749	-24.810625
41.968002	163.602005	1691.957031	9.948750	-27.645624	-9.476250
-9.943000	317.444000	1439.966064	1.176875	-54.206249	-2.800000
107.055000	91.561005	1477.480957	7.713125	-57.203125	-5.656875
85.827003	158.294998	1472.906006	14.660625	-68.893127	-6.234375
227.712997	260.774994	1304.180054	10.425625	-58.896252	-6.072500
189.893005	138.714005	1358.531006	16.458750	-30.205000	5.801250
149.999008	162.565002	1301.312988	10.626875	-24.469376	9.406250
213.865997	167.445007	1229.211060	8.518125	-17.788750	8.229375
240.339996	152.378006	1191.879028	7.966875	-6.720000	3.150000
222.162003	212.402008	1136.613037	5.665625	-4.970000	-0.035000
235.582001	196.664001	1100.440063	5.298125	-0.647500	-2.196250
237.656006	223.748001	1089.032959	1.045625	-1.474375	-4.396875
251.320007	211.059998	1081.347046	1.220625	-2.056250	-4.077500
266.082001	225.456009	1076.040039	-0.258125	-3.128125	-1.837500
270.412994	223.992004	1051.213013	2.257500	-0.826875	1.824375
-397.476013	-18.910000	990.700989	4.230625	6.593125	5.923750
-456.584991	-4.758000	984.845032	4.296250	2.961875	-0.984375
-450.240997	-7.320000	993.751038	-0.595000	4.287500	1.828750
-456.097015	-1.403000	983.137024	0.358750	0.940625	-6.409375
-454.816010	-1.952000	958.614990	1.995000	-1.719375	-2.222500
-439.444000	8.601000	955.504028	3.880625	-2.130625	-1.588125
-437.248016	0.671000	882.609009	4.593750	-5.604375	-2.677500
-385.703003	-16.348000	786.533997	3.080000	-9.686250	-3.832500
-327.082001	10.614000	682.651001	2.629375	-15.325625	-5.801250
-267.179993	1.647000	584.257996	7.231875	-27.606251	-6.868750
-246.135010	23.729000	604.449036	5.831875	-34.566875	-7.166250
-178.059006	-12.444000	596.153015	-1.299375	-35.367500	-0.490000
-219.783005	-6.771000	780.067993	2.432500	-45.185001	-2.218125
-105.103004	-5.978000	749.812012	7.157500	-59.933125	-8.728125
-176.473007	-48.250999	845.520996	6.510000	-61.276249	-6.671875
-43.493000	17.629000	886.757019	6.426875	-70.205627	-9.957500
-25.986000	-17.934000	922.137024	4.943750	-87.745003	-7.892500
-27.450001	86.742004	1222.744995	17.250626	-91.393753	-7.210000
209.169006	-25.742001	1121.607056	20.120625	-94.294373	-14.783125
-1.769000	124.440002	1433.865967	13.759375	-85.653748	-7.100625
350.384003	103.578003	1343.159058	1.076250	-55.378750	-3.626875
162.503998	109.373001	1253.854980	1.907500	-15.417500	-15.168125
63.257000	113.887001	1249.524048	-15.443750	-0.774375	0.109375
152.865997	-77.225998	1167.784058	-18.265625	7.778750	-5.131875
174.643005	-39.833000	1453.568970	2.310000	-7.971250	-0.940625
93.330002	159.820007	1319.369019	-18.865000	-49.056873	4.825625
341.112000	-181.902008	1357.799072	13.098750	-82.219376	0.096250
256.505005	53.985001	1322.235962	12.110000	-101.154373	-6.444375
338.367004	-104.554001	1451.250977	26.127501	-88.178123	-7.420000
391.925018	-16.775000	1448.018066	50.706249	-42.017502	-17.224375
242.352997	122.487999	1325.407959	41.125000	-9.506875	-24.600624
240.339996	80.581001	1337.119995	38.180626	-8.960000	-6.291250
281.820007	195.871002	1316.135986	30.323126	-29.334375	7.004375
281.088013	159.514999	1180.045044	22.837500	-17.605000	15.330000
342.697998	124.562004	1182.729004	17.386250	4.554375	11.978750
330.071014	155.061996	1046.577026	16.113125	-4.007500	5.753125
429.867004	150.059998	1034.255005	13.370000	-16.791250	0.096250
436.089020	193.736008	1006.682983	-8.828750	-5.595625	-3.937500
-756.278015	-48.556000	735.781982	2.537500	4.738125	-2.843750
-774.212036	-6.466000	734.684021	3.819375	0.962500	0.196875
-761.402039	-25.742001	727.791016	6.081250	-0.503125	0.288750
-758.535034	0.244000	728.705994	2.896250	-2.843750	-1.557500
-767.562988	11.346000	723.398987	2.261875	-3.338125	0.306250
-688.080017	-25.681000	697.046997	1.063125	-0.546875	0.061250
-624.518005	6.344000	656.664978	-1.443750	-0.896875	-3.600625
-448.289001	15.921000	558.455017	0.643125	6.943125	-8.846250
-378.871002	-25.559000	427.670990	1.299375	4.650625	-5.215000
-322.994995	2.318000	369.843018	1.557500	2.047500	-4.077500
-337.330017	-44.285999	326.532990	5.630625	-7.192500	1.211875
-461.282013	10.675000	390.765991	12.893125	-33.398750	0.328125
-447.984009	-26.657000	394.487000	9.716875	-51.690624	5.477500
-488.427002	95.160004	535.702026	5.385625	-69.365623	-0.013125
-394.914001	4.148000	657.458008	16.467501	-80.950623	-5.512500
-392.839996	29.951000	947.940002	-4.891250	-82.897499	-5.617500
-370.575012	20.801001	1064.023071	-7.459375	-75.529999	-18.108126
-490.257019	-62.646999	1197.613037	-7.459375	-95.773125	-5.057500
-318.298004	84.850998	1219.817017	9.598750	-95.773125	-5.057500
-318.298004	84.850998	1219.817017	27.632500	-95.615623	-23.677500
-320.372009	36.600002	1175.469971	11.996250	-40.271873	-25.825624
-440.114990	89.243004	1423.008057	20.006874	-35.205624	-4.340000
-302.194000	63.867001	1425.997070	23.909374	-31.132500	-0.603750
-624.457031	73.139000	1483.764038	-12.775000	-45.001251	-13.641250
-570.655029	-119.743004	1698.972046	-9.428125	-95.528122	-22.706249
-456.707001	-178.303009	1536.162964	19.118750	-87.202499	-17.753750
-512.827026	28.609001	1469.062988	36.876877	-67.668121	13.597500
-309.514008	72.101997	1425.509033	18.558750	-60.064377	33.569374
-311.832001	20.374001	1312.049072	3.364375	-27.313126	34.973751
-274.317017	-10.980000	1269.348999	8.500625	-20.037500	24.395000
-229.238007	53.070000	1189.378052	7.730625	-15.579375	13.523125
-175.130997	109.250999	1166.747070	9.747500	-9.493750	15.325625
-142.984009	79.300003	1151.924072	3.675000	-0.993125	11.808125
-135.847000	104.371002	1139.052979	0.468125	1.491875	4.585000
-96.684998	88.816002	1122.644043	-0.218750	1.207500	0.665000
-119.743004	108.153000	1084.519043	2.813125	1.360625	-0.026250
-93.330002	128.283005	1103.428955	3.653125	-5.267500	0.463750
-76.250000	106.567001	1139.785034	2.961875	-2.467500	1.719375
-672.098022	-72.590004	796.171997	8.758750	-8.260000	0.231875
-729.010986	-80.703003	783.362000	6.645625	-6.531875	2.091250
-708.148987	-41.174999	787.937012	5.556250	-11.488750	-2.576875
-634.765991	-62.159000	758.229980	8.938125	-11.230625	-3.710000
-561.565979	-53.985001	704.976990	12.346250	-6.208125	-6.654375
-390.278015	-27.938000	621.285034	11.108125	-1.645000	-18.291876
-435.174011	-46.848000	385.398010	23.384375	13.234375	-36.938126
-275.049011	-94.062004	402.477997	20.208124	-10.036250	-27.553749
-280.295013	31.110001	366.244019	23.572500	-26.337500	9.362500
-324.886017	-9.211000	456.402008	17.071251	-55.680626	23.520000
-285.053009	113.459999	669.536011	11.764375	-81.790627	31.259375
-362.096008	2.440000	669.169983	5.967500	-74.449371	0.035000
-233.081009	82.411003	952.270996	-3.128125	-103.888748	4.751250
-327.447998	2.318000	1013.210022	-11.484375	-106.916252	-22.391251
-239.242004	43.920002	1119.716064	-15.592500	-110.757500	-0.030625
-173.789001	38.796001	1269.471069	-5.271875	-112.756874	4.143125
-172.386002	-176.656006	1287.282959	-41.466251	-94.412498	-12.950000
-305.183014	-11.773000	1303.203979	-39.130001	-59.443127	2.887500
-217.526001	-185.684006	1369.510986	4.125625	-58.795624	-18.733749
-125.660004	-77.104004	1285.453003	1.526875	-44.878750	-12.980625
-141.397995	-155.061996	1567.883057	30.572500	-56.953751	-14.306250
-2.074000	19.703001	1408.368042	20.842501	-48.116249	-32.042500
-268.278015	-163.296997	1677.438965	26.757500	-45.167500	-6.094375
-23.912001	-200.994995	1483.337036	38.941875	-62.553749	5.258750
26.657000	-16.714001	1417.761963	23.756250	-68.490623	-2.388750
139.628998	-83.570000	1430.937988	17.832500	-53.095001	13.545000
47.336002	-166.408005	1373.049072	14.910000	-25.598125	-0.376250
97.661003	25.681000	1299.727051	10.206875	-20.606251	-9.800000
76.067001	-16.775000	1239.031982	-7.231875	-23.476250	-11.313750
135.054001	-74.847000	1162.660034	-2.196250	-5.000625	-5.954375
173.667007	85.339005	1162.171997	-1.246875	-0.743750	1.137500
152.927002	13.481000	1100.562012	0.511875	-1.684375	9.069375
227.285995	70.760002	1154.425049	2.633750	3.215625	8.360625
178.608002	47.519001	1073.478027	-1.251250	2.940000	4.856250
190.807999	1.464000	1112.822998	1.168125	2.292500	8.155000
185.257004	-2.562000	1052.859985	3.762500	2.047500	7.214375
143.533005	-12.871000	1146.190063	1.010625	4.270000	4.007500
121.451004	-1.098000	1163.758057	5.713750	-5.210625	4.519375
-271.632996	10.553000	958.127014	13.921250	-26.381250	-2.205000
-209.839996	44.469002	1010.708984	10.841250	-26.088125	6.768125
-194.346008	30.378000	1004.609009	2.231250	-20.138124	3.578750
-174.520996	43.554001	995.337036	0.433125	-11.060000	3.915625
-192.516006	79.848999	1072.989990	8.120000	-1.688750	-1.824375
-161.650009	41.053001	1014.491028	6.076875	-7.223125	1.080625
-71.003998	34.587002	904.385986	-2.703750	-6.846875	10.228750
28.609001	63.806000	727.181030	-0.135625	4.392500	3.946250
88.816002	49.043999	529.663025	3.976875	17.101875	-1.369375
-50.874001	39.466999	514.718018	8.246875	26.411875	6.024375
-33.306000	84.790001	607.804016	7.258125	15.544375	14.896875
-249.856003	24.034000	632.265015	12.788125	10.941875	4.602500
-185.928009	75.579002	777.932983	5.346250	-6.781250	11.016250
-91.622002	81.069000	786.716980	11.733750	-28.953751	-0.231875
-160.247009	130.723007	1006.195007	-8.566250	-44.025623	1.251250
83.447998	71.675003	1081.530029	-10.412500	-48.860001	-2.795625
-224.723999	177.388000	1259.467041	-37.108749	-52.281250	6.969375
-7.198000	-50.447002	1524.024048	-33.075001	-70.201248	21.551250
178.242004	50.935001	1238.727051	-8.745625	-68.214996	12.175625
53.924000	-128.404999	1484.984009	13.545000	-64.290627	20.593124
174.094009	12.932000	1174.128052	5.936875	-40.083752	13.597500
157.257996	59.779999	1646.207031	-6.531875	-44.493752	13.221250
237.595001	-12.627000	1359.263062	-23.327499	-37.869999	8.487500
140.787994	-20.434999	1698.484009	-33.971874	-29.675625	-7.826875
231.800003	-83.814003	1407.575073	-2.664375	-19.346251	-19.521250
101.687004	2.989000	1191.696045	5.700625	-1.601250	-35.984375
79.971001	-2.745000	1393.849976	12.866875	-6.273750	-30.423750
101.443001	17.873001	1303.509033	16.528749	-19.044374	-29.408751
219.050995	101.565002	1266.055054	19.735624	-31.994375	-22.579374
198.432999	4.392000	1165.161011	13.011250	-18.099375	-16.143749
240.949997	80.764000	1264.224976	8.028125	-17.775625	-16.423750
261.628998	62.830002	1195.539062	0.056875	-16.983749	-15.448125
255.163010	45.262001	1200.785034	-2.568125	-11.646250	-9.139375
244.915009	50.081001	1172.480957	0.144375	2.170000	-4.926250
214.354004	50.751999	1128.011963	2.677500	9.598750	0.148750
230.701996	44.713001	1136.247070	3.644375	9.419375	3.303125
214.354004	47.763000	1143.078979	3.246250	9.660000	2.161250
213.622009	31.842001	1140.700073	1.526875	12.057500	1.334375
-592.249023	5.795000	780.617004	-3.136875	-9.926875	-2.616250
-578.645996	-14.518001	794.585999	-3.346875	-8.316875	-2.695000
-559.674988	28.670000	759.328003	2.695000	0.052500	2.826250
-593.651978	-9.943000	751.337036	4.550000	8.045625	-1.610000
-558.088989	50.386002	710.345032	4.808125	7.280000	0.525000
-578.158020	38.735001	653.127014	7.796250	-1.544375	-2.358125
-440.298004	4.392000	588.161987	7.170625	-4.143125	-4.891250
-281.515015	59.353001	543.022034	5.254375	-5.950000	-3.613750
-289.567017	-33.549999	492.148010	9.804375	-13.470625	-5.499375
-286.700012	30.927000	486.231018	11.773125	-6.860000	3.535000
-372.649017	64.660004	540.887024	14.188125	-12.639375	0.568750
-375.028015	51.423000	597.556030	24.644375	-19.958750	13.020000
-466.040009	120.963005	631.106018	20.033125	-24.053749	5.394375
-324.214996	-41.053001	856.501038	34.785625	-29.124374	8.531250
-303.597015	70.210999	956.419006	9.458750	-52.320625	-10.946250
-410.774017	109.983002	1016.015991	-10.780000	-75.565002	-3.456250
-335.011993	103.273003	1220.671021	-7.048125	-98.056877	10.596250
-387.899017	74.969002	1215.181030	-0.455000	-98.612503	8.150625
-296.338013	175.985001	1291.614014	-16.126249	-79.747498	11.637500
-404.795990	10.065001	1414.223999	-11.799375	-40.118752	-3.220000
-447.434998	144.447998	1292.773071	-38.220001	-21.039375	-2.016875
-578.585022	-162.565002	1753.994019	-35.516251	-28.975624	5.989375
-511.363007	-54.534000	1489.010010	-2.616250	-39.060001	-8.019375
-504.165009	33.306000	1606.435059	0.109375	-60.738125	-6.514375
-322.567993	29.402000	1460.401001	8.238125	-45.504375	-3.408125
-350.567017	89.181999	1354.687988	13.116250	-27.667500	2.209375
-220.637009	51.667000	1257.576050	10.482500	-26.411875	-0.385000
-134.749008	76.067001	1216.523071	12.416250	-18.641874	1.776250
-176.839005	19.947001	1168.150024	11.536875	-11.151875	-1.452500
-120.109001	66.978004	1134.355957	13.846875	-7.070000	2.183125
-144.630997	46.604000	1178.641968	10.836875	-2.458750	3.561250
-157.990005	43.066002	1159.488037	5.648125	-4.948125	-3.683750
-119.864998	61.915001	1161.562012	1.015000	-8.474375	-6.741875
-125.477005	38.735001	1166.259033	1.015000	-3.469375	-8.898750
-153.658997	28.365000	1117.764038	-0.433125	-3.469375	-8.898750
-153.658997	28.365000	1109.041016	2.708125	0.651875	-6.960625
-185.074005	45.018002	1109.041016	3.653125	2.555000	-5.376875
-165.249008	73.321999	1120.570068	3.955000	-0.087500	-2.576875
-628.666016	28.670000	889.867981	-0.148750	-12.945625	3.014375
-591.517029	26.962000	908.838989	-2.253125	-15.763125	3.263750
-609.145996	23.668001	915.549011	-0.599375	-9.883125	1.373750
-600.666992	37.942001	922.502991	1.159375	-5.394375	0.682500
-594.200989	40.260002	897.981018	1.977500	-9.607500	0.993125
-561.932007	39.650002	884.255981	-1.015000	-8.811250	-0.266875
-478.423004	36.112000	799.527039	-1.868125	-6.203750	-0.608125
-349.591003	26.901001	681.674988	0.144375	-12.425000	-2.690625
-175.009003	2.867000	524.721985	2.244375	-18.309376	-6.720000
-246.988998	63.806000	482.571014	7.157500	-19.355000	-2.314375
-182.572998	71.187004	449.082001	10.101875	-30.651251	-3.211250
-234.544998	15.311000	460.428009	14.800625	-39.112499	1.925000
-284.381989	95.465004	550.220032	11.711875	-55.803123	9.585625
-172.569000	-36.173000	674.416016	8.649375	-61.228127	16.371250
-274.561005	117.486000	884.317017	2.051875	-62.580002	13.339375
-113.277000	72.346001	898.895996	10.666250	-82.096878	9.721250
-300.851990	35.990002	1198.711060	13.790000	-62.750626	3.517500
-143.350006	126.880005	1239.093018	13.339375	-74.020622	-1.338750
-300.851990	56.913002	1303.082031	5.726875	-71.063126	14.052500
-363.438019	76.799004	1452.593018	17.482500	-54.451248	-4.278750
-101.382004	323.910004	1336.692993	-15.343125	-84.183746	6.650000
-116.144005	-23.607000	1613.450073	-2.371250	-108.023125	16.690624
139.628998	281.820007	1338.279053	13.588750	-74.917503	12.398750
36.783001	239.059006	1574.348999	-10.937500	-53.615623	17.762501
138.531006	102.785004	1765.401001	25.655001	-22.509375	10.648750
-33.793999	251.137009	1502.186035	3.828125	-8.456875	-8.303750
1.281000	157.624008	1432.463013	3.705625	-42.612499	-4.764375
28.914000	184.830002	1301.068970	8.990625	-40.875626	-8.999375
16.409000	182.145996	1234.030029	5.534375	-29.098125	-2.786875
125.781998	155.488998	1173.151978	9.008125	-27.243126	1.776250
114.619003	186.660004	1152.350952	1.758750	-22.198750	-1.977500
254.248001	133.406998	1165.953979	-6.094375	-23.826250	-5.910625
272.364990	104.431999	1148.020020	-7.476875	-11.051250	-10.657500
220.270996	123.280998	1168.333008	-4.523750	-8.618750	-9.257500
257.114990	105.529999	1114.896973	-1.360625	-4.681250	-7.035000
197.518005	113.154999	1101.537964	0.052500	-2.931250	-3.185000
219.783005	125.172005	1075.125000	4.685625	-1.063125	1.465625
195.505005	129.503006	1102.270020	1.771875	0.157500	1.890000
-328.545990	100.040001	1002.535034	0.971250	-4.711875	0.245000
-340.441010	67.466003	981.062988	3.049375	-0.656250	-1.413125
-323.544006	104.493004	1030.594971	3.731875	-4.624375	1.570625
-340.136017	81.556999	1033.889038	5.206250	-8.929375	1.789375
-311.343994	102.175003	1049.566040	1.706250	-3.972500	0.166250
-322.385010	104.859001	1066.157959	3.062500	-7.240625	0.323750
-287.005005	96.196999	1028.643066	4.493125	-5.980625	0.945000
-205.630997	89.974998	903.653992	2.817500	4.300625	-5.035625
-116.632004	69.052002	686.738037	4.676875	17.373125	-8.579375
-30.073000	64.293999	512.033997	2.765000	30.896250	-7.529375
-39.833000	64.416000	413.397003	5.306875	41.063751	-7.958125
-148.962006	94.428001	405.955017	6.842500	31.832500	-2.415000
-71.370003	68.747002	397.292999	5.398750	26.022499	11.182500
-269.803009	139.263000	524.416992	-5.438125	7.201250	17.819374
-8.540000	25.498001	761.218994	-19.206249	-15.785000	12.569375
-391.071014	171.348999	757.254028	-14.577500	-7.083125	9.756250
-185.134995	-7.015000	1228.601074	-1.863750	-18.112499	15.561875
-224.296997	162.259995	1096.841064	1.890000	-45.106251	20.321875
-557.112976	-93.269005	1521.156982	-17.342501	-40.289375	11.558750
-406.992004	133.041000	1230.919067	-1.929375	-23.349375	-5.070625
-436.515991	86.742004	1664.812012	-7.853125	-101.324997	-3.981250
-232.227005	140.117004	1411.723022	-9.152500	-117.766251	-4.366250
-229.542999	267.851013	1776.015015	-6.794375	-60.108124	-6.046250
-182.024002	-2.623000	1736.364990	18.576250	-43.561874	-8.474375
-303.291992	214.110001	1446.493042	23.248751	-39.865002	-20.706875
-217.221008	199.104004	1560.562988	1.955625	-59.530624	-15.360625
-26.657000	95.831001	1392.691040	-11.760000	-65.638123	-23.148125
-39.223000	133.162994	1329.067993	-0.153125	-52.836876	-13.488125
65.514000	110.471001	1268.067993	13.921250	-44.725624	3.128125
14.152000	138.591995	1277.035034	16.003750	-16.288124	4.357500
45.506001	100.223000	1251.536987	11.173750	-3.626875	4.585000
104.066002	68.076004	1153.327026	6.243125	-0.756875	2.030000
103.090004	91.805000	1122.521973	4.777500	2.808750	0.070000
101.625999	121.634003	1068.292969	4.563125	4.226250	0.402500
81.374001	122.244003	1097.511963	1.881250	-1.990625	1.216250
131.210999	163.175003	1155.339966	1.194375	-9.572500	-0.161875
126.148003	151.218994	1103.307007	1.290625	-0.210000	-0.271250
81.374001	159.637009	1144.421021	0.288750	5.473125	-0.529375
-258.152008	-17.323999	1082.811035	-4.243750	-9.568125	8.579375
-193.553009	36.783001	1071.831055	-10.128125	-19.530001	11.300625
-175.009003	-52.521000	1052.494019	-12.320000	-15.461250	11.064375
-153.537003	-2.867000	1014.125000	-5.950000	2.410625	4.160625
-215.695999	-25.681000	962.031006	5.827500	7.673750	-4.628750
-218.380005	-33.244999	894.077026	8.045625	8.141875	-2.716875
-172.507996	-39.101002	728.523010	12.438125	7.975625	-1.736875
-63.074001	4.880000	522.403992	17.206875	10.850000	-1.408750
-21.594000	47.945999	361.912994	13.168750	22.859375	0.253750
-30.439001	8.113000	337.390991	13.168750	32.055626	-0.573125
-30.439001	89.121002	462.746002	17.071251	32.055626	-0.573125
-105.896004	89.121002	462.746002	17.180626	11.576250	-4.147500
-65.209000	-13.115000	545.645020	15.715000	-23.012501	-1.793750
-145.912003	56.181000	683.565979	-10.080000	-57.631874	-5.079375
50.325001	-61.305000	963.678040	-4.445000	-76.195000	-1.058750
12.017000	183.488007	1075.369019	2.301250	-83.033127	-2.183125
98.514999	49.593002	1216.583984	5.726875	-90.295624	-0.546875
135.359009	-6.405000	1406.354980	-21.240625	-64.644997	14.568750
172.324997	-162.992004	1704.645020	-31.058125	-34.243126	-9.100000
29.646000	4.026000	1609.546021	0.586250	-35.490002	-15.435000
91.500000	-60.756001	1711.110962	-7.332500	-69.015625	-1.395625
189.404999	-133.285004	1582.096069	10.320625	-45.163124	-8.710625
-6.771000	162.503998	1556.049072	7.227500	-13.426875	-7.516250
244.305008	-42.334000	1681.160034	-11.204375	15.168125	-0.875000
73.809998	-95.221001	1641.205078	10.618125	27.483749	-6.706875
-33.306000	39.161999	1391.166016	0.008750	-11.388125	-24.080000
20.434999	-40.869999	1144.604004	-2.760625	-45.517502	-22.181250
111.996002	7.564000	1282.342041	-7.210000	-50.999374	-16.568125
152.682999	-50.691002	1281.732056	-8.588125	-36.771873	-10.710000
235.033005	-65.879997	1294.541992	2.835000	-10.360000	-7.560000
165.005005	-35.380001	1205.665039	8.229375	2.108750	-3.390625
155.488998	-39.040001	1110.687988	13.886250	12.118750	3.377500
177.205002	-21.289000	1082.688965	17.495625	19.201876	4.121250
136.457001	34.709000	1076.588989	12.390000	12.193125	5.840625
222.100998	37.271000	1118.251953	8.260000	1.837500	7.975625
224.785004	43.615002	1102.514038	1.474375	4.628750	2.734375
189.344009	20.434999	1098.609985	-0.511875	3.994375	0.144375
203.251999	30.073000	1077.992065	1.146250	2.393125	-0.879375
-252.966995	84.180000	1123.864014	-1.964375	-21.153126	-3.718750
-208.132004	79.300003	1110.687988	-1.378125	-11.506250	-2.703750
-195.078003	58.438000	1006.927002	-1.369375	2.441250	-3.609375
-251.014999	74.786003	967.398987	-1.426250	0.796250	-1.198750
-234.117996	64.476997	951.721985	1.286250	-2.353750	0.612500
-110.653999	22.143000	783.544983	-0.538125	9.248750	-2.970625
-15.616000	-1.037000	504.226013	-11.322500	22.868126	-4.046875
36.539001	0.122000	367.769012	-13.488125	30.769375	-3.609375
-78.750999	108.458000	296.399017	-6.496875	40.206249	-4.239375
-96.136002	-4.392000	394.975006	-2.506875	24.793125	-9.668750
-159.697998	90.524002	494.527008	-6.584375	-15.356250	6.203750
-253.760010	-214.658997	831.796021	2.931250	-43.610001	13.724375
-37.088001	85.583000	997.716003	9.423750	-73.184998	11.961250
-119.926003	16.409000	1250.682983	12.923750	-85.242500	-11.200000
300.485992	169.824005	1375.916016	28.109375	-70.966873	11.768750
-115.778000	157.440994	1503.344971	-0.315000	-32.270000	9.065000
-82.044998	192.943008	1529.880005	-24.889376	5.993750	-25.633125
-164.456009	112.606003	1660.359009	-20.724375	-11.921875	-2.296875
-210.206009	45.445000	1543.360962	-8.876875	-21.380625	3.631250
-319.884003	112.301003	1516.032959	-20.125000	-49.188126	-18.239374
-185.074005	-50.691002	1460.401001	-8.846250	-59.005627	-19.175625
-112.118004	47.396999	1258.430054	-0.437500	-50.369373	-26.232500
-38.552002	16.226000	1438.318970	2.327500	-53.060001	-17.254999
-4.331000	-34.526001	1558.794067	17.219999	-82.320000	-9.148125
85.155998	-3.416000	1605.398071	42.533749	-93.585625	-2.598750
146.156006	117.242004	1432.036011	51.498123	-52.771252	2.296875
74.847000	136.701004	1285.697021	23.756250	-11.550000	-0.765625
172.691010	68.014999	1198.344971	10.185000	7.643125	6.295625
138.348007	92.780998	1167.417969	10.185000	7.643125	7.748125
138.348007	9.089000	1134.599976	1.627500	5.044375	7.748125
161.223007	9.089000	1134.599976	-0.599375	4.440625	4.913125
149.022995	18.361000	1136.979004	-0.669375	12.880000	-5.337500
114.436005	57.401001	1106.906006	3.049375	8.500625	-7.787500
162.382004	98.942001	1143.567017	2.073750	1.645000	-4.825625
142.617996	111.630005	1138.138062	-0.402500	3.810625	-5.652500
149.876999	107.970001	1136.186035	0.000000	6.890625	-4.239375
142.313004	129.746994	1122.765991	-0.695625	8.334375	-3.526250
146.460999	113.216003	1117.458984	-1.124375	10.539375	-2.506875
