A_X[mg]	A_Y[mg]	A_Z[mg]	G_X[dps]	G_Y[dps]	G_Z[dps]	
-235.154999	-12.749001	1087.081055	-0.332500	-3.556875	-0.179375
-243.695007	-22.875000	1079.273071	-0.262500	-1.159375	-0.188125
-248.026001	-3.965000	1090.070068	0.577500	-4.440625	0.214375
-163.053009	-119.743004	1072.989990	1.404375	-4.243750	-8.631875
-92.415001	-226.798004	936.777039	5.206250	4.790625	-12.048750
-62.830002	-385.153992	794.463989	14.271250	17.915625	-9.524375
-163.541000	-382.042999	732.244019	14.367500	17.408125	-9.231250
-122.305000	-359.838989	656.726013	16.940001	11.296250	10.202500
-257.481018	-249.490005	717.726013	23.240000	2.528750	14.157500
-57.462002	-313.783997	672.708008	20.881874	-20.278126	21.796249
-210.694000	-43.737000	826.062012	18.392500	-42.144375	33.180000
-73.321999	-133.041000	842.653992	8.242500	-55.028751	26.433750
-72.834000	182.572998	1126.609009	-0.078750	-70.201248	36.286251
49.532001	284.442993	1232.566040	-0.713125	-76.107498	21.306250
446.093018	45.567001	1134.966064	12.184375	-66.495628	66.399376
168.360001	133.834000	1204.201050	37.275002	-34.632500	70.826874
114.375000	234.301010	1199.625977	32.554375	-14.231875	49.393749
90.219002	311.709991	1225.001953	22.566250	-28.665001	56.603748
121.389999	343.917999	1200.296997	31.709999	-39.488750	42.402500
95.343002	453.718018	1264.834961	38.539375	-4.676875	45.119373
318.725006	435.295990	1563.125000	39.961250	15.750000	41.470627
96.806999	577.121033	1442.467041	56.258125	41.803123	28.629999
-94.550003	596.518982	1232.139038	26.656876	44.231251	31.950624
49.959000	449.143005	1201.456055	12.783750	5.293750	34.584373
-2.745000	557.418030	1019.127014	12.783750	-16.454374	31.596251
67.404999	403.332001	1039.013062	5.136250	-16.454374	31.596251
67.404999	403.332001	1199.077026	-21.800625	-19.985001	41.890625
176.290009	406.442993	1199.077026	-20.264999	-24.281250	29.181250
142.617996	411.322998	1210.362061	-6.860000	-19.678749	21.013124
124.683998	404.979004	1189.744019	21.826876	-13.785625	16.799999
82.289001	440.602997	1110.322021	29.461250	-16.485001	6.321875
118.645004	505.873016	1069.879028	13.111875	-20.667500	1.715000
121.451004	430.171997	1081.651978	3.990000	-14.192500	-5.551875
141.459000	443.835999	1063.108032	-2.349375	-16.270624	-12.551875
140.300003	381.615997	1048.833984	-4.746875	-19.709375	-17.377501
-251.747009	-10.675000	1112.761963	-5.114375	-12.985000	-0.223125
-180.621002	-50.569000	1087.935059	-1.141875	-10.228750	-2.681875
-223.320999	-3.904000	1099.098022	2.139375	-6.120625	-0.288750
-196.908005	-51.484001	1085.067993	-0.240625	-5.573750	-0.052500
-236.009003	-38.796001	1090.619019	-3.088750	-2.563750	-0.017500
-207.522003	-75.822998	1053.409058	-0.288750	1.360625	-0.319375
-211.425995	-123.952003	1046.088989	2.686250	2.139375	-2.988125
-121.756004	-217.281998	969.046021	0.888125	-0.214375	-14.341250
-107.482002	-318.847015	804.041016	-0.446250	3.622500	-13.930000
-121.634003	-277.306000	713.455994	-4.830000	15.596875	-3.185000
-139.690002	-347.516998	645.562988	-2.428125	11.025000	8.929375
-175.192001	-254.858002	762.439026	-2.716875	-3.338125	5.241250
-105.591003	-265.899017	741.455017	-2.366875	-20.947500	13.908125
-127.306999	-183.671005	961.421021	2.550625	-29.098125	16.629375
-49.043999	-85.827003	1038.829956	-2.734375	-11.449375	18.436251
-121.817001	-186.721008	994.726990	-1.789375	-10.307500	21.643126
-20.923000	-94.793999	1028.520996	17.184999	-32.103748	16.091249
-66.489998	-119.011002	988.505005	19.582500	-59.176250	18.589375
16.896999	51.850002	1148.691040	6.466250	-69.960625	22.627501
118.401001	6.100000	1168.942993	15.439375	-83.505623	34.356876
103.821999	169.763000	1213.290039	36.671249	-45.950626	33.009377
214.354004	71.613998	1305.277954	43.645000	-28.809376	50.395626
57.462002	251.747009	1276.546997	60.790627	-4.453750	56.389374
19.947001	343.186005	1270.935059	34.969376	9.734375	57.640625
64.171997	250.954010	1242.875000	23.467501	-7.039375	54.564999
-55.815002	388.936005	1171.383057	8.898750	-43.583752	52.088749
174.947998	196.725006	1253.733032	-9.143750	-45.163124	60.348751
133.285004	190.014999	1202.432007	25.584999	-11.720625	29.955626
94.855003	409.859009	1312.109985	19.236876	4.388125	34.829376
123.098000	244.915009	1339.803955	-8.260000	-24.014376	44.913750
301.644989	289.506012	1359.019043	3.745000	-48.838123	34.466251
236.192001	339.830994	1324.676025	10.316250	-39.493126	26.486250
275.049011	247.904007	1293.322021	15.579375	-27.610624	21.822500
292.678009	329.949005	1187.853027	20.286875	-3.259375	10.583125
199.348007	296.825989	1108.614014	16.764999	12.849375	6.864375
149.328003	289.567017	1059.203979	9.992500	10.307500	-2.222500
149.328003	314.210999	1101.050049	6.230000	3.303125	-3.622500
144.570007	301.157013	1084.213989	8.710625	-6.173125	-5.451250
-251.747009	-81.739998	1107.150024	2.428125	-1.605625	-2.121875
-225.761002	-81.984001	1097.938965	2.366875	-4.698750	2.891875
-246.928009	-78.995003	1109.833984	2.900625	-2.528750	5.438125
-220.697998	-96.136002	1063.839966	1.404375	2.156875	4.528125
-235.094009	-80.641998	1060.180054	-1.089375	-1.400000	4.917500
-204.227997	-92.903000	1019.981018	-3.596250	-1.290625	6.781250
-162.748001	-183.122009	945.682983	-3.128125	3.320625	5.241250
-144.447998	-257.968994	804.833984	-4.991875	8.710625	4.541250
-116.510002	-281.759003	666.973999	-8.483125	13.580000	10.080000
-155.001007	-285.114014	667.583984	-17.430000	5.617500	10.136875
-178.181000	-266.509003	726.143982	-12.096875	-7.625625	13.265000
-124.745003	-271.816010	667.645020	-3.084375	-11.046875	11.480000
-209.413010	-227.164001	791.169983	11.830000	-5.416250	10.959375
-192.272003	-129.380997	904.203003	9.454375	0.511875	2.121875
-168.908997	-221.796005	910.424988	20.230000	-12.429375	13.960625
-151.768005	-73.139000	986.980042	43.119999	-18.038124	5.215000
-135.908005	19.886000	1172.664062	28.936251	-29.290625	19.648125
-11.590000	-4.697000	1132.953003	29.172501	-78.006248	37.673126
39.223000	144.020996	1168.088989	34.426876	-97.842499	35.411251
113.459999	97.478004	1149.972046	4.287500	-72.454376	57.736874
200.628998	79.910004	1381.284058	3.031875	-51.524376	65.764999
95.586998	175.192001	1344.867065	12.945625	-41.685001	70.765625
106.262001	75.579002	1360.544067	-7.210000	-43.312500	75.411873
242.169998	81.801003	1398.546997	-4.755625	-45.005627	54.919376
137.432999	183.792999	1309.487061	5.206250	-18.843124	49.573124
120.902000	135.054001	1331.325073	26.162500	-3.587500	30.248751
207.826996	295.911011	1356.701050	27.523125	4.786250	39.458126
62.646999	227.835007	1177.971069	33.372501	23.003750	41.453125
97.051003	337.817993	1301.374023	45.858749	25.519375	26.696251
135.115005	367.342010	1191.208008	49.328125	16.961876	24.368750
59.170002	375.942993	1016.992004	50.181252	-1.951250	8.890000
79.238998	629.825012	1121.057983	31.224375	-12.079375	12.359375
90.889999	462.684998	1122.400024	13.295625	-34.488125	11.086250
148.962006	446.641998	1154.608032	-1.561875	-42.910000	4.926250
178.363998	414.190002	1129.781006	-14.853125	-24.613750	3.994375
136.457001	253.333008	1203.774048	-16.769375	-17.648750	-1.111250
158.783005	250.100006	1196.759033	-3.500000	-12.578125	0.818125
145.057999	206.973007	1166.076050	-0.796250	-9.261875	1.378125
-258.700989	-189.832001	1018.090027	-2.358125	-7.791875	-1.903125
-252.600998	-206.423996	962.275024	-7.021875	-8.045625	-0.848750
-246.745010	-199.287003	963.799988	-5.932500	-11.270000	-1.610000
-239.425003	-202.276001	967.277039	-6.081250	-12.591250	-2.073750
-151.524002	-314.028015	911.767029	-2.205000	-6.842500	1.430625
-221.003006	-254.979996	963.983032	7.013125	-6.790000	-1.697500
-133.346008	-327.020996	836.309998	10.263750	-6.418125	-0.450625
-222.466995	-246.013000	953.979004	15.540000	-2.244375	-0.201250
-177.876007	-283.101013	888.403992	18.891251	-8.474375	0.131250
-169.884995	-227.712997	938.484985	6.711250	-7.940625	8.015000
-121.146004	-340.746002	777.322998	16.362499	7.730625	13.251875
-208.436996	-218.624008	932.445984	29.391251	44.073750	3.290000
-303.414001	12.932000	1176.202026	22.421875	61.932499	6.785625
-372.527008	-66.246002	947.147034	-2.397500	28.844376	13.505625
-277.183990	-2.806000	1116.666016	-5.188750	-19.057501	16.301250
-231.190002	-145.790009	943.791992	-16.996876	-60.379375	35.087502
-243.572998	-13.359000	1054.629028	-10.325000	-57.509377	26.000626
-127.063004	-64.050003	1107.088989	-6.291250	-60.768749	26.263124
-24.278000	-160.796005	1056.520020	7.170625	-65.454376	35.446251
-59.902000	-96.014000	1038.586060	23.436874	-51.301250	27.781250
22.509001	-50.386002	1145.458008	14.866250	-39.974377	31.517500
21.960001	-0.061000	1198.467041	17.202499	-37.633751	35.555626
-60.389999	54.107002	1209.020020	-4.970000	-44.817501	33.350624
-12.322001	22.691999	1178.885986	-29.662500	-34.396252	35.805000
56.424999	-57.950001	1213.473022	-18.584999	-24.119375	40.245625
20.740000	-22.021000	1339.193970	-18.584999	-28.643126	32.764374
195.139008	-27.267000	1178.764038	27.632500	-28.643126	32.764374
195.139008	-27.267000	1178.764038	76.019997	-8.360625	40.035625
-47.396999	228.567001	1255.745972	90.308746	-3.565625	56.533749
35.441002	209.962006	1183.461060	74.339996	-26.678749	55.361252
88.633003	304.024017	1183.521973	71.732498	-25.655001	39.256874
59.779999	334.157990	1156.743042	56.336876	-38.268124	33.915001
166.529999	279.196991	1112.395996	27.116249	-45.867500	22.273125
186.843002	435.417999	1278.072021	5.000625	-20.299999	18.200001
230.458008	344.955017	1176.750977	-11.742500	-3.049375	26.061874
167.384003	284.503998	1284.660034	-6.072500	-1.522500	5.464375
135.175995	297.802002	1168.454956	-1.890000	-0.030625	4.480000
127.673004	291.397003	1143.811035	1.413125	-1.575000	1.675625
-268.826996	28.487000	1124.169067	-6.125000	-15.111250	-2.664375
-227.957001	-42.517002	1071.464966	-5.302500	-10.001250	-6.216875
-228.872009	13.237000	1070.183960	-3.911250	-10.657500	-0.533750
-244.000000	-22.204000	1044.136963	-0.218750	-6.208125	-0.966875
-218.684998	7.198000	1054.263062	-1.465625	-12.840625	1.421875
-160.430008	-86.863998	1031.571045	-4.296250	-13.702500	3.368750
-154.147003	-158.904999	971.486023	-3.587500	-4.379375	-3.408125
-146.583008	-233.691010	873.337036	-4.191250	-0.805000	-2.139375
-174.520996	-159.697998	893.466980	0.634375	-3.937500	-5.586875
-85.278000	-207.888000	848.876038	8.369375	-9.725625	-10.255000
-155.733002	-103.456001	869.799011	12.446875	-7.485625	-0.210000
-154.451996	-132.736008	893.955017	14.988750	-11.930625	13.807500
-168.848007	-43.188000	948.976990	20.212500	-19.004999	16.760626
-154.451996	-88.571999	955.199036	22.911875	-24.815001	13.199375
-99.857002	132.796997	1125.206055	17.727501	-39.908749	15.981875
38.552002	-34.098999	1105.076050	-13.689375	-49.017502	28.078751
-57.096001	21.289000	1167.174072	-6.190625	-44.432499	34.531876
72.285004	45.201000	1176.629028	-22.338751	-40.534374	22.443750
124.500999	-63.074001	1186.266968	-14.971250	-45.482498	49.135624
92.842003	6.283000	1158.572998	-5.801250	-40.967499	27.566875
197.395996	-52.154999	1168.454956	0.717500	-45.884998	34.243126
70.515999	207.766006	1140.151001	14.345625	-44.008125	30.143749
169.031006	109.007004	1145.275024	0.280000	-37.485001	19.525625
341.356018	77.714005	1030.961060	10.801875	-11.497500	31.780001
129.869003	183.975998	1104.832031	32.011875	4.208750	23.056250
125.781998	92.232002	1111.237061	30.559376	-5.438125	23.270624
74.176003	168.238007	1145.031006	36.019375	-33.656876	32.480000
180.804001	187.331009	1132.953003	53.991875	-63.651875	20.168751
301.950012	339.037994	1178.154053	37.751877	-55.820625	24.430000
459.024994	224.785004	1259.833008	26.976250	-42.428749	23.021250
390.826996	230.275009	1043.953979	52.972500	-1.421875	-2.765000
325.739990	427.854004	1205.665039	25.668125	20.956249	14.253750
480.313995	226.432007	1187.182007	30.834999	27.361250	8.723750
246.195999	371.307007	999.911987	31.167500	36.141876	-1.316875
257.664001	351.970001	1102.941040	8.850625	29.680000	11.873750
337.451996	417.300995	1165.466064	8.281875	7.105000	5.788125
214.475998	468.785004	1156.987061	12.722500	-2.034375	-4.930625
162.320999	483.852020	1110.443970	9.371250	-23.436874	-6.995625
-238.570999	-29.646000	1121.363037	-11.659375	-6.011250	-0.065625
-176.778000	-33.916000	1075.917969	-8.211875	-9.275000	-4.851875
-160.186005	-125.172005	1088.605957	0.997500	-11.169375	0.630000
-139.994995	-108.823997	1075.307983	6.733125	-6.938750	-0.332500
-173.484009	-133.529007	1018.882996	5.538750	-9.003750	4.751250
-123.647003	-203.069000	975.939026	1.750000	-9.073750	7.660625
-134.261002	-254.003998	933.361023	1.706250	-7.271250	-4.781875
-115.107002	-282.490997	843.690979	1.045625	-5.136250	-0.752500
-56.973999	-276.513000	883.950989	7.971250	-9.458750	5.770625
-135.419998	-202.764008	922.502991	6.492500	-5.853750	6.260625
-83.752998	-181.841003	864.919006	0.923125	-6.505625	19.096874
-94.000999	-95.221001	866.566040	-0.945000	-15.658125	25.405624
-19.764000	-140.910004	829.051025	16.856874	-15.133125	30.703751
-178.608002	191.113007	923.174011	12.320000	-36.785000	35.035000
63.744999	-63.989002	818.803040	3.933125	-59.701248	54.792500
127.489998	62.403000	1058.166992	15.299375	-71.356247	64.579376
101.443001	-59.902000	1020.103027	0.533750	-89.245628	51.616249
161.040009	27.511000	1153.327026	-4.462500	-100.419373	35.560001
325.069000	88.328003	1199.748047	-6.085625	-74.283127	13.361250
488.549011	-77.653000	1212.557983	-6.068125	-67.536873	13.190625
499.468018	-44.774002	1144.909058	30.436874	-44.712502	8.343125
436.394012	76.127998	1342.122070	35.271252	-24.981251	20.645624
495.686005	124.074005	1265.628052	37.139374	-32.011875	23.616249
497.149994	188.490005	1275.204956	29.242500	-25.904375	23.979376
418.947998	208.193008	1123.925049	21.835625	1.264375	24.701250
483.425018	206.667999	1204.688965	18.440624	6.256250	30.126249
323.239014	192.393997	1174.250000	28.205626	24.696875	27.571251
287.066010	278.343018	1134.295044	38.040627	26.643749	30.170000
289.688995	369.903992	1209.630005	36.566250	5.656875	24.438749
281.149017	329.826996	1087.874023	38.504375	-6.991250	24.946251
332.877014	421.998016	1122.704956	11.309375	-16.410625	17.110624
357.154999	285.662994	1059.570068	8.290625	-2.152500	22.299376
365.329010	288.529999	1096.841064	27.374374	3.228750	13.295625
333.182007	407.114014	1089.399048	26.166876	-3.609375	-1.658125
345.869995	384.117004	1079.639038	12.136250	-10.526250	-8.732500
334.463013	427.488007	1146.373047	1.176875	-15.951250	-8.815625
434.136993	377.712006	1162.171997	-4.882500	-5.551875	-2.730000
272.975006	262.848999	1066.524048	-6.378750	2.078125	-1.815625
-67.222000	-119.011002	1120.265015	-3.425625	-9.012500	-6.934375
-25.132000	-98.759003	1116.544067	-4.423125	-12.171250	-2.231250
-19.337000	-116.144005	1130.573975	1.001875	-8.491875	1.347500
-5.978000	-126.819000	1125.023071	5.000625	-5.906250	3.508750
-14.091001	-93.695999	1119.838013	6.168750	-6.015625	1.465625
-6.283000	-148.412994	1057.008057	3.976875	-3.828125	3.110625
4.880000	-216.367004	970.570984	3.115000	2.323125	2.266250
-38.125000	-276.085999	835.639038	2.839375	6.693750	1.347500
-26.230000	-295.118011	758.596008	12.355000	4.112500	-3.325000
-65.331001	-202.031998	737.307007	18.549999	1.155000	-9.139375
-8.174000	-251.930008	695.460999	21.310625	-3.906875	18.900000
-47.763000	-181.109009	824.781006	20.523125	-3.556875	33.586876
12.932000	-297.740997	757.497986	29.273125	-2.051875	28.411249
-46.726002	-151.951004	971.973999	51.029999	-12.486250	12.315625
15.738000	-83.752998	1028.582031	33.350624	-22.246876	-10.600625
50.691002	93.878998	1109.406982	21.599375	-45.810623	-18.965626
286.516998	33.306000	1126.670044	-15.675625	-60.326874	3.548125
244.061005	11.773000	1138.504028	-35.455002	-61.788124	29.885626
374.601013	32.269001	1181.203979	-11.427500	-42.468124	22.684376
292.312012	-4.453000	1132.037964	4.996250	-40.880001	36.001877
406.931000	97.661003	1139.419067	8.483125	-35.529373	28.848749
273.950989	182.938995	1305.400024	11.935000	-47.123123	40.096874
386.923004	128.283005	1153.815063	6.085625	-61.836250	74.900002
352.701996	185.684006	1200.723999	24.788750	-54.928123	66.543747
291.701996	216.428009	1228.661987	20.864374	-56.074375	72.944374
411.627991	112.789001	1110.993042	9.738750	-25.812500	67.138748
419.009003	179.766998	1374.452026	7.131250	-5.919375	52.924374
497.882019	213.317001	1253.977051	15.194375	-7.726250	58.441250
434.320007	200.628998	1210.789062	15.128750	-12.810000	45.648750
476.287994	260.104004	1230.796997	15.443750	-26.280624	34.772499
463.783020	187.819000	1101.904053	18.514999	-20.772499	25.011875
432.612000	179.889008	1178.154053	33.061874	-21.612499	16.082500
483.546997	237.900009	1218.230957	35.174999	-15.312500	19.827499
436.882019	164.761002	1209.447021	29.649376	-8.115625	21.476875
495.076019	213.500000	1152.350952	10.399375	-13.186250	9.695000
412.299011	108.397003	1110.505005	-20.160000	-6.825000	2.380000
437.065002	40.564999	1098.427002	-17.023125	-3.311875	-4.449375
408.334015	55.632000	1057.557007	-14.026250	6.282500	-12.149375
52.948002	-119.438004	1099.098022	-5.355000	-5.578125	-6.212500
39.284000	-131.576996	1126.303955	-3.351250	-7.376250	0.385000
65.636002	-124.135002	1089.276978	-0.433125	-5.556250	0.205625
39.466999	-115.229004	1107.088989	1.050000	-5.582500	1.876875
45.323002	-123.159004	1104.832031	0.721875	-6.090000	2.178750
63.379002	-194.529007	1075.674072	2.905000	-4.576250	0.993125
58.681999	-203.679001	1045.540039	3.018750	0.293125	-2.349375
59.779999	-298.778015	947.940002	4.882500	4.567500	-0.258125
91.012001	-458.842010	767.684998	7.358750	6.991250	-0.848750
80.581001	-439.261017	649.466980	9.843750	10.294375	-3.281250
25.681000	-467.321014	504.042999	11.873750	14.756875	7.161875
-57.401001	-438.468018	516.304016	25.501875	27.352501	12.897500
8.723001	-254.736008	615.184998	26.022499	35.043751	-1.343125
-2.379000	-274.500000	664.289978	24.237499	22.141874	2.576875
0.915000	-124.806000	810.507019	44.988125	6.715625	8.925000
271.998993	175.740997	1203.347046	37.944374	-5.543125	21.647499
102.601997	54.595001	1188.524048	34.733124	-54.529999	35.914375
235.643005	165.737000	1296.250000	14.713125	-103.617500	61.114376
271.998993	133.468002	1350.479004	2.323125	-107.957497	63.380627
344.649994	332.450012	1405.379028	-3.605000	-99.951248	76.811874
473.421021	126.514000	1427.461060	21.288750	-63.791874	55.155624
331.596008	383.385010	1443.869995	21.288750	-63.100624	49.910000
331.596008	318.175995	1224.880005	31.421249	-63.100624	49.910000
426.511993	318.175995	1224.880005	19.656876	-29.373751	63.997501
524.539001	191.783997	1302.228027	10.167500	1.916250	41.903751
358.740997	536.129028	1298.323975	0.975625	17.154375	29.889999
274.804993	283.283997	925.004028	-17.036249	43.933750	34.453125
142.679001	119.987000	1442.954956	-21.341249	30.830626	19.586876
221.552002	274.011993	1245.558960	-10.823750	-15.198750	46.970001
399.489014	83.204002	1199.869995	10.810625	-51.406250	43.579376
442.006012	64.538002	1209.691040	58.576874	-54.586876	26.757500
436.333008	182.817001	1106.234985	72.152496	-39.694374	19.376875
416.507996	287.798004	1138.381958	52.303123	-24.578751	32.121250
466.101013	265.899017	1144.055054	38.040627	-20.440001	27.168751
411.688995	224.296997	1034.926025	19.118750	-17.780001	10.867500
402.295013	199.897003	1048.956055	0.686875	-7.371875	2.830625
377.285004	114.862999	1018.333984	-8.435000	-5.473125	2.113125
404.063995	91.561005	1054.750977	-5.066250	-9.769375	-4.169375
48.983002	-14.518001	1149.605957	2.765000	-15.535625	1.509375
77.714005	-22.997000	1139.785034	0.367500	-10.443125	1.553125
75.517998	-45.811001	1090.436035	-3.640000	-4.620000	0.581875
75.274002	-70.455002	1058.959961	-3.810625	-3.561250	1.938125
116.510002	-150.182007	972.035034	-3.268125	-0.870625	3.653125
100.650002	-174.154999	908.900024	-4.016250	1.430625	-1.798125
174.826004	-280.477997	733.036987	-3.294375	8.211875	2.065000
103.273003	-225.761002	749.080017	6.208125	9.358125	7.643125
53.192001	-270.596008	665.327026	14.240625	9.292500	20.580000
-16.042999	-232.471008	706.929016	32.576248	10.215625	35.616875
-5.246000	-180.499008	898.591003	30.095625	18.913124	13.527500
-76.311005	-113.399002	962.213989	25.138750	-3.841250	7.870625
109.433998	-39.040001	966.057007	28.258125	1.404375	4.235000
47.458000	48.007000	1322.602051	16.432501	-2.432500	20.724375
65.758003	71.431000	1202.370972	6.396250	-39.532501	20.413750
176.716995	19.886000	1175.896973	-6.610625	-78.561874	44.555000
331.962006	19.276001	1238.666016	-3.613750	-101.001251	65.375626
297.436005	135.602997	1170.162964	21.236250	-73.578751	60.668125
381.677002	95.709000	1277.583984	14.879375	-58.939999	85.312500
427.244019	191.235001	1131.000977	13.545000	-45.434376	86.856873
197.395996	217.160004	1058.655029	10.381875	-28.389376	81.165001
627.445984	106.139999	1358.409058	45.368752	-46.689999	40.306873
527.223022	197.395996	1106.540039	90.168747	-27.260626	19.438126
514.535034	475.556000	1217.499023	57.833126	-27.785625	58.900623
607.926025	239.608002	1073.599976	85.080627	-8.093750	38.933125
402.234009	510.020996	1131.062012	86.463127	-16.148125	44.161251
551.500977	481.960999	943.304016	56.450626	-23.848125	55.225624
471.286011	458.170990	917.867004	36.855000	-16.135000	35.310623
533.384033	563.884033	976.731995	-1.863750	-21.161875	32.869373
643.427979	509.777008	1008.574036	-24.920000	-30.309999	21.573126
646.294983	480.313995	1085.067993	-26.989374	-19.075001	13.181875
609.939026	392.046997	1090.863037	-25.663750	-13.168750	11.983125
557.906006	275.781006	1036.572998	-20.934376	-13.085625	-3.920000
508.984009	272.425995	1028.643066	-13.571250	-2.620625	-5.263125
487.329010	197.274002	1035.963013	-2.852500	-3.198125	-3.758125
523.075012	196.785995	1017.601990	3.640000	-0.555625	-6.807500
536.190002	261.994995	1012.356018	-2.240000	-4.379375	-9.310000
553.880005	180.559998	1045.967041	-3.320625	-5.092500	-8.369375
-324.946991	9.394000	1048.041016	-2.318750	-10.613750	0.730625
-304.817017	11.224000	1038.769043	-2.257500	-8.163750	1.312500
-286.273010	-31.415001	1022.359985	-1.439375	-8.601250	1.505000
-256.444000	-72.163002	993.324036	-2.629375	-7.695625	3.513125
-240.949997	-103.211998	969.473022	2.983750	-5.499375	0.336875
-221.979004	-226.066010	936.838013	3.871875	-8.382500	5.149375
-207.156006	-216.244995	906.093994	6.807500	-10.937500	15.229375
-147.619995	-240.035004	871.567993	6.873125	-13.479375	17.316250
-223.016006	-159.149002	836.919983	6.597500	-12.114375	12.827500
-133.223999	-85.643997	846.619019	1.032500	-17.171875	13.785625
-137.860001	-103.578003	874.862000	-0.061250	-26.381250	31.158751
-156.160004	21.106001	910.059021	2.616250	-22.373751	18.243750
-107.604004	-22.387001	1028.032959	6.514375	-42.761250	39.357498
-124.440002	93.025002	1063.535034	22.041250	-45.071251	41.138126
-43.493000	-21.777000	1131.489014	29.478750	-53.344376	47.525623
-84.240997	197.152008	1128.500000	40.753124	-38.758125	44.506874
0.793000	166.042007	1133.807007	20.886250	-22.343124	42.218750
-59.902000	265.777008	1221.708008	11.073125	-21.214375	43.452499
17.934000	288.591003	1154.364014	11.003125	-6.636875	40.114376
101.077003	262.971008	1141.553955	9.450000	-10.220000	51.038750
35.014000	298.595001	1104.282959	11.536875	-17.338125	72.235626
96.380005	293.653992	1175.652954	5.276250	-35.883751	64.640625
149.999008	332.998993	1149.301025	9.975000	-57.505001	70.472504
156.831009	369.721008	1186.510986	20.212500	-43.693127	60.007500
23.363001	416.507996	1241.166992	12.591250	-31.294374	62.138126
129.442001	432.002014	1210.118042	11.379375	-33.669998	43.736874
63.440002	508.252014	1152.350952	11.996250	-34.785625	26.031250
219.477997	365.390015	1005.341003	2.401875	-3.141250	37.931252
281.454010	222.893997	972.950012	13.269375	10.285625	27.378750
182.817001	213.927002	1148.447021	6.006875	-2.174375	40.101250
285.175018	282.613007	1105.136963	28.870625	-34.588749	29.924999
374.662018	470.614990	1169.248047	30.808750	-29.452499	10.618125
354.776001	439.688019	1232.200073	30.375626	-5.131875	2.205000
322.933990	525.759033	1277.583984	40.586876	3.093125	-0.555625
272.304016	465.552002	1140.578003	46.370625	9.778125	-2.095625
214.292999	599.752014	1067.195068	47.446877	10.670625	-4.025000
194.834000	599.385986	1000.338989	29.334375	-0.879375	0.249375
166.408005	545.645020	1022.177002	-1.522500	-5.035625	0.971250
-197.274002	116.693001	1043.099976	-3.871875	-10.150000	2.257500
-207.095001	116.693001	1043.099976	-5.473125	-6.440000	-0.056875
-139.994995	54.411999	956.053040	-5.333125	-3.408125	3.994375
-187.757996	34.160000	919.941040	-6.286875	3.845625	5.451250
-152.805008	-79.422005	881.510986	-3.596250	-4.099375	14.704375
-141.520004	-19.764000	871.263000	-5.617500	-12.018125	21.774376
-123.890999	-107.665001	849.303040	-7.643125	-7.748125	11.160625
-85.705002	-48.556000	871.385010	-6.619375	-15.146250	10.438750
-132.858002	-23.729000	841.921997	1.925000	-15.618750	12.210625
-75.274002	-6.710000	920.856018	1.732500	-35.546875	16.625000
-71.553001	71.370003	915.061035	14.175000	-48.195000	36.649376
-129.137009	151.341003	1029.863037	12.293750	-28.695625	18.908751
-11.529000	211.669998	1028.093994	-4.130000	-25.768749	36.780624
58.132999	193.492004	1066.584961	-12.670000	-28.100624	57.846249
98.514999	18.056000	1155.706055	-20.422501	-17.981251	57.478748
74.724998	208.193008	1203.164062	-26.700624	-5.280625	40.503750
16.896999	111.751999	1291.492065	-23.546249	-18.974375	46.878124
133.529007	75.884003	1221.402954	-0.988750	-53.204376	75.543121
172.813004	156.343002	1158.511963	1.645000	-45.272499	70.367500
236.436005	137.860001	1323.151001	-8.133125	-49.183750	56.446251
194.041000	206.119003	1155.096069	9.288125	-23.065001	50.111252
197.701004	241.499008	1387.261963	18.305000	-16.594376	56.061249
215.695999	327.997009	1227.197998	39.926250	4.519375	33.893124
84.729004	459.024994	1211.703979	14.105000	9.913750	28.030624
77.409004	303.657990	1223.660034	-4.641875	-6.409375	22.150625
117.181000	416.080994	1117.398071	9.520000	-10.780000	26.875626
136.701004	299.937012	1152.107056	-5.547500	-24.416876	33.617500
301.157013	204.716003	1389.275024	11.029375	-7.656250	14.525000
180.072006	392.962006	1245.254028	27.081249	0.490000	-3.473750
195.566010	364.109009	1237.629028	29.102501	-10.828125	-3.093125
114.557999	431.453003	1186.450073	22.255625	-12.346250	-0.770000
127.368004	385.276001	1224.818970	3.863125	-14.708750	7.647500
157.136002	297.740997	1160.219971	-0.883750	-13.877500	0.748125
125.781998	296.947998	1130.329956	-3.701250	-6.470625	-1.911875
167.628006	247.171997	1135.880981	-4.418750	-6.619375	-5.525625
179.096008	270.412994	1124.412964	-3.631250	-2.940000	-10.088750
203.191010	255.956009	1122.034058	-4.270000	2.883125	-9.331875
172.630005	204.289001	1106.784058	-4.593750	7.131250	-8.325625
-225.334000	21.594000	1052.432983	-5.184375	-2.301250	6.706875
-265.899017	63.806000	1093.302979	-3.408125	-8.973125	5.206250
-190.686005	54.595001	1087.203003	-3.736250	-12.998125	2.821875
-185.501007	22.448000	1099.708008	-5.643750	-9.305625	2.498125
-160.125000	48.922001	1078.662964	-7.520625	-7.476875	1.793750
-104.126999	-17.323999	1036.207031	-6.278125	-2.826250	1.754375
-0.976000	-184.525009	951.294983	0.455000	4.042500	-4.506250
26.474001	-243.207001	824.354004	11.116875	10.036250	-3.495625
88.450005	-306.708008	750.483032	27.741875	14.870625	1.404375
-42.272999	-124.318001	712.785034	33.429375	25.466875	-5.013750
-28.182001	-165.981003	687.408997	38.500000	30.520000	22.181250
-203.617996	-47.091999	903.044006	39.847500	24.145624	19.131874
-237.290009	-3.416000	945.744019	13.593125	0.669375	14.713125
-272.059998	66.306999	877.851013	-3.727500	-17.036249	17.320625
-147.009995	-18.483000	987.468018	-12.648125	-38.080002	30.572500
-161.772003	223.869995	990.945007	-18.663750	-47.166874	43.019375
-154.147003	255.712006	1129.354004	-8.286250	-38.976875	51.869999
-113.642998	196.419998	1220.976074	-16.323126	-48.838123	69.133751
-5.368000	223.016006	1385.797974	-17.171875	-56.910000	77.284378
74.054001	288.713013	1256.051025	-11.659375	-43.798126	97.081253
106.750000	194.589996	1346.758057	6.890625	-16.209375	100.130623
91.134003	267.667999	1287.039062	10.898125	-25.366249	76.317497
142.434998	259.554993	1326.322998	17.635626	-16.979376	57.815624
20.252001	312.136993	1300.458984	19.879999	-13.943125	45.066875
125.660004	362.401001	1253.183960	4.895625	-6.164375	54.219376
55.937000	385.093018	1310.645996	16.786875	11.025000	43.820000
-2.501000	425.841003	1287.526978	20.483749	8.054375	34.527500
85.155998	419.863007	1175.348022	20.440001	10.342500	35.052502
-21.350000	524.843994	1132.831055	22.688749	1.023750	16.463125
43.737000	482.815002	1137.100952	23.397499	-14.848750	17.990000
26.840000	385.641998	1058.593994	23.183125	-12.862500	15.378125
-13.237000	408.761017	1148.264038	23.183125	-15.933750	6.781250
52.277000	371.429016	1206.092041	19.302500	-15.933750	6.781250
52.277000	371.429016	1195.172974	15.316875	-25.493126	9.594375
93.390999	387.227997	1195.172974	8.837500	-19.893126	7.787500
100.100998	369.050018	1218.230957	-3.666250	-7.424375	9.598750
102.358002	275.597992	1160.525024	-6.181875	2.528750	5.923750
90.219002	259.127991	1099.219971	-4.550000	8.120000	-3.618125
-492.270020	-5.307000	966.911011	3.075625	5.648125	-12.162500
-492.391998	-10.919000	949.281982	-0.555625	-8.058750	-10.924375
-457.804993	0.976000	977.585999	-2.988125	-16.555000	-8.903125
-480.497009	-20.069000	1013.270996	-3.198125	-17.001249	-8.128750
-417.362000	-22.691999	1024.312012	-1.837500	-12.674375	-5.608750
-406.808990	-67.709999	1015.955017	-2.489375	-9.043125	-2.843750
-301.096008	-125.721001	956.236023	-2.104375	-2.852500	-4.361875
-267.667999	-254.796997	883.463013	-1.596875	0.940625	-1.045625
-121.695000	-268.095001	821.669983	6.505625	-5.705000	-9.174375
-200.324005	-276.147003	729.437988	7.581875	-12.446875	-6.125000
-270.412994	-257.968994	788.486023	10.228750	-3.088750	8.448125
-326.289001	-231.678009	810.994995	30.668751	11.357500	2.393125
-306.647003	-171.897995	777.262024	38.740623	5.866875	12.285000
-317.627014	-127.246002	802.455017	30.100000	-4.313750	19.232500
-271.571991	-21.472000	812.885986	8.229375	-8.684375	38.128124
-398.940002	202.459000	892.856995	-10.246250	-33.508125	72.340622
-299.083008	194.529007	966.117981	-6.479375	-56.643124	79.489372
-135.968994	122.792999	992.470032	-0.406875	-58.795624	85.741249
-125.660004	240.766998	1042.185059	8.798125	-48.111874	100.581253
-46.726002	135.237000	1125.389038	11.996250	-61.420624	98.078751
28.059999	251.137009	1129.415039	15.019375	-49.048126	78.732498
-11.285000	414.739014	1273.253052	7.424375	-46.786251	83.488129
155.061996	405.345001	1397.998047	32.283127	-23.065001	38.635624
-91.012001	668.804016	1335.900024	18.165001	21.157499	29.645000
-70.943001	652.090027	1367.254028	-18.926250	5.626250	41.146873
-84.119003	621.833984	1401.597046	-22.251249	9.222500	13.286875
-255.712006	601.338013	1267.396973	-36.395626	9.016875	4.191250
-128.770996	520.330017	1247.816040	-24.543751	-3.136875	3.049375
-230.031006	520.574036	1169.125977	-4.497500	-10.618125	10.543750
-120.414001	518.377991	1207.006958	-11.239375	-17.714375	18.103750
-98.514999	441.884003	1188.768066	-7.258125	-13.475000	14.284375
-123.280998	415.593018	1138.992065	-3.088750	-6.125000	7.700000
-101.931000	353.800018	1192.367065	-2.699375	-4.453750	1.688750
-89.304001	278.830994	1174.250000	0.975625	0.433125	-4.821250
-135.419998	228.750000	1099.281006	-0.096250	1.745625	-7.691250
-53.375000	170.617004	1127.036011	-4.208750	4.108125	-10.368750
-143.289001	214.964005	1122.644043	9.878750	9.060625	-2.038750
-134.016998	227.895996	1028.093994	9.603125	3.924375	16.948750
-428.524994	29.280001	1021.994019	-5.267500	-6.059375	5.473125
-404.369019	9.272000	976.366028	-4.917500	1.128750	5.320000
-425.170013	14.457000	950.319031	-7.214375	4.668125	4.891250
-397.354004	-12.627000	923.356995	-7.608125	1.649375	6.286875
-358.985016	-66.794998	860.221985	-6.951875	2.130625	7.826875
-384.360992	-122.061005	849.913025	-4.952500	0.026250	9.786875
-270.412994	-197.212997	772.869995	2.655625	1.452500	12.888750
-382.347992	-104.919998	763.781006	4.523750	0.888125	8.413125
-233.569000	-230.701996	703.817993	-9.165625	-17.674999	8.404375
-231.556000	-206.363007	666.546997	-3.530625	-11.291875	18.523750
-337.513000	-221.063995	745.664001	30.848125	11.068750	2.095625
-268.949005	-77.897003	800.869019	39.514999	1.828750	22.496250
-302.682007	-11.285000	749.690002	29.277500	-1.505000	26.757500
-349.895996	31.232000	922.991028	-6.378750	-25.121250	29.014999
-314.088989	142.923004	1072.074951	-15.168125	-51.572498	44.616249
-240.218002	198.555008	1077.565063	-14.126875	-71.395622	48.768124
-177.876007	60.633999	1178.337036	-22.631874	-76.225624	66.254997
-108.397003	298.595001	1239.031982	-23.970625	-76.746246	94.316254
14.152000	129.197998	1335.838989	-6.580000	-64.824371	77.109375
-56.059002	385.093018	1526.525024	22.347500	-42.266876	64.413124
-53.802002	430.537994	1475.589966	7.166250	-11.698750	54.827499
-104.188004	521.427979	1354.139038	4.628750	26.215000	30.664375
-220.880997	548.877991	1080.493042	-28.450624	-4.165000	20.177500
-208.010010	459.635010	1252.940063	-34.418125	-18.204374	12.407500
-117.242004	388.020996	1219.755981	-19.700624	-7.988750	13.776875
-214.841995	355.141998	1314.794067	13.842500	3.657500	13.715625
-144.264999	442.433014	1172.664062	44.064999	-16.646875	27.055000
-97.722000	397.842010	1160.402954	43.483124	-26.665625	33.018124
-101.870003	399.671997	1124.046997	32.138748	-23.034374	23.213751
-100.894005	330.558990	1069.879028	12.363750	-8.041250	21.192499
-83.264999	305.304993	1147.531982	5.648125	7.647500	13.794375
-103.761002	346.053009	1147.044067	12.236875	4.510625	9.178750
-110.593002	333.609009	1134.539062	13.085625	-3.018750	8.220625
-97.844002	352.640991	1125.389038	5.311250	-11.865000	1.435000
-74.237000	325.191010	1129.415039	-6.011250	-7.787500	-6.798750
-88.450005	294.507996	1139.662964	-9.520000	-2.611875	-16.100000
-83.875000	320.188995	1133.441040	-8.658125	3.740625	-20.825001
-86.253998	314.576996	1125.266968	-6.982500	6.181875	-19.849375
-86.010002	301.278992	1116.604980	-0.437500	9.765000	-14.017500
-536.556030	-74.237000	940.315002	-8.111250	-10.158750	-3.696875
-554.489990	-78.202003	930.189026	-7.406875	-7.660625	-1.675625
-507.520020	-95.281998	908.716980	0.201250	-6.632500	-0.577500
-472.811005	-77.958000	900.908997	-8.141875	-5.280625	3.692500
-476.410004	-134.016998	861.015015	-9.660000	-2.607500	4.825625
-428.220001	-208.559006	841.067993	-1.386875	-6.181875	-3.241875
-385.276001	-281.515015	761.402039	6.330625	-9.957500	-8.303750
-372.343994	-267.545990	678.015015	13.238750	-9.301250	3.626875
-413.397003	-287.187988	698.145020	20.020000	-6.269375	8.141875
-366.244019	-226.554001	665.388000	11.865000	-26.149376	14.616875
-340.502014	-145.363007	769.942017	-1.155000	-38.605000	12.963125
-390.399994	-193.003998	858.026001	-1.155000	-38.605000	4.878125
-390.399994	-116.022003	847.838989	-8.715000	-47.389999	4.878125
-424.071991	-116.022003	847.838989	-13.711250	-52.688126	-15.509375
-331.718018	-98.209999	815.692017	-27.523125	-47.271873	11.073125
-235.643005	-191.417999	903.471008	-18.746876	-42.021873	31.561251
-157.257996	-105.224998	817.460999	5.945625	-32.191250	47.845001
-264.984009	-5.307000	943.548035	30.340626	-16.288124	58.502499
-217.770004	65.453003	1046.821045	2.340625	-16.100000	62.501251
-131.576996	114.252998	1188.584961	-50.032501	-30.030001	55.024376
-207.156006	217.221008	1294.297974	-77.183746	-19.543125	27.820625
-264.069000	180.255005	1496.329956	-76.785622	-21.100624	12.569375
-350.811005	168.177002	1432.036011	-45.775623	-29.176874	13.330625
-430.416016	13.664001	1418.005981	-7.498750	-34.509998	32.252499
-300.303009	62.830002	1417.518066	-7.752500	-58.008125	45.946251
-117.608002	15.494000	1310.645996	-1.404375	-15.837500	39.195625
-322.933990	11.346000	1392.081055	10.526250	-14.258125	27.671875
-174.399002	86.010002	1306.802979	-15.207500	-50.763126	21.555626
-148.718002	-85.034004	1262.333984	-1.522500	-22.531250	10.570000
-194.712006	26.169001	1250.072998	3.841250	-21.411249	-4.676875
-130.600998	0.915000	1288.136963	10.430000	-41.496876	-1.763125
-96.868004	0.610000	1241.105957	24.075624	-22.675625	12.118750
-199.897003	-0.610000	1167.234985	15.715000	-11.882500	15.299375
-183.610001	-8.723001	1158.084961	8.636250	-8.942500	17.578751
-163.906998	22.082001	1151.984985	6.050625	-6.461875	16.450001
-136.152008	-11.224000	1149.849976	3.836875	-2.222500	11.598125
-80.215004	27.023001	1156.376953	0.678125	-0.157500	2.410625
-125.293999	-16.531000	1123.864014	0.113750	2.323125	-4.742500
-456.158020	-1.098000	1047.796997	-1.128750	-5.534375	-0.770000
-403.881012	-21.837999	1033.339966	0.669375	-5.276250	2.170000
-403.332001	-23.058001	1026.081055	1.316875	-5.823125	4.217500
-373.929993	-34.098999	1002.901001	0.765625	-1.701875	6.658750
-397.658997	-30.927000	979.111023	2.086875	-5.040000	7.581875
-382.713989	-103.395004	1012.600037	4.961250	0.280000	5.079375
-346.419006	-172.203003	913.963013	19.376875	-5.320000	10.819375
-208.986008	-158.234009	724.557983	17.674999	-14.021875	-6.846875
-252.783997	-196.602997	610.914978	16.506874	-21.288750	-15.540000
-223.382004	-160.856995	540.643005	12.044375	-43.645000	2.174375
-197.518005	-224.236008	612.622986	13.523125	-45.946251	19.858126
-213.865997	-185.867004	719.799988	10.631250	-41.960625	27.418125
-133.529007	-221.552002	814.716003	3.338125	-47.788124	38.609375
-191.479004	-115.778000	901.640991	9.620625	-51.834999	38.998749
-109.738998	-177.266006	1057.862061	20.313126	-63.424374	37.008125
-83.326004	-2.745000	1079.395020	18.641874	-61.582500	28.004375
32.390999	249.673004	1240.801025	17.062500	-29.942499	34.667500
-3.050000	75.152000	1192.916016	22.426250	-38.360001	49.503124
169.335999	141.581009	1164.795044	39.427502	-36.833126	59.053749
-12.627000	378.139008	1201.029053	38.084373	-24.788750	64.421875
-88.571999	425.779999	1209.812988	18.663750	-19.503750	51.961876
82.716003	487.024017	1218.718994	-6.273750	-1.855000	46.239376
34.403999	455.791992	1247.693970	-17.845625	-12.219375	41.365623
136.945007	486.048004	1344.744995	-1.264375	-10.526250	33.158127
-131.149994	557.234985	1457.717041	-9.839375	-37.353748	34.409374
126.209000	441.701019	1381.528076	7.704375	-42.253750	42.126877
122.487999	432.063019	1207.921997	32.812500	-14.975625	32.668125
9.150001	534.786987	1222.562012	31.815001	-10.255000	33.980625
117.608002	514.046997	1199.565063	19.009375	-28.231874	46.423126
74.847000	455.731018	1117.031982	10.447500	-34.413750	31.941875
137.494003	533.140015	1194.624023	-5.114375	-24.990000	25.134375
229.725998	385.093018	1190.842041	-15.351875	-9.270625	10.185000
137.981995	345.442993	1135.759033	-21.183750	-3.399375	-13.501250
153.841995	295.606018	1192.794067	-19.424999	0.945000	-15.911875
151.768005	235.826004	1142.407959	-10.500000	6.636875	-11.978750
88.328003	230.153000	1136.247070	-2.231250	2.765000	-9.454375
158.417007	204.289001	1141.005005	1.286250	-1.400000	-3.548125
138.348007	219.722000	1124.962036	3.333750	-0.647500	-4.685625
-394.914001	-5.551000	982.832031	-12.665625	-7.323750	-6.168750
-393.938019	85.400002	1026.020020	-1.785000	-13.273750	-8.750000
-358.619019	36.722000	1000.095032	6.247500	-10.416875	-6.431250
-339.953003	76.432999	1035.353027	3.158750	-14.936250	2.362500
-325.373993	27.938000	1055.727051	-0.984375	-12.083750	2.196250
-303.597015	-48.068001	1004.791992	-7.888125	-10.871875	-5.512500
-260.226013	-85.705002	937.447998	-7.717500	-8.601250	-7.144375
-223.076996	-150.182007	861.075989	0.030625	3.320625	-1.343125
-277.244995	-111.325005	819.291016	2.773750	8.085000	2.240000
-236.863007	-108.397003	823.682983	-4.077500	-7.245000	11.821250
-241.316010	-143.716003	794.463989	6.243125	-13.588750	16.030001
-212.279999	-92.170998	901.945984	25.230625	-11.274375	14.166250
-253.210999	-22.509001	924.820984	29.036875	-13.969375	30.161249
-202.337006	-44.225002	1011.989990	33.188751	-20.422501	20.155624
-164.761002	86.558998	1061.704956	23.152500	-21.914375	24.775625
-204.533005	170.617004	967.093994	13.549375	-17.171875	22.701876
-58.743000	212.645996	1030.534058	19.350624	-9.034375	26.661249
-168.115997	296.643005	1081.103027	7.608125	-6.422500	40.801250
-112.301003	202.886002	1064.816040	19.228125	-1.977500	43.373749
-212.829010	403.942017	1031.754028	24.333750	-11.401250	59.644375
-146.216995	367.524994	1128.317017	-10.132500	-33.976250	62.741875
-33.977001	358.375000	1098.854004	-18.602501	-37.939999	43.001877
-141.031998	416.752014	1115.202026	-36.163750	-32.611252	32.445000
-59.109001	248.148010	1193.770020	-42.603748	-19.368126	10.066875
-219.904999	279.746002	1198.954956	-18.969999	29.102501	20.684999
-47.519001	433.588013	1257.820068	-17.657499	-11.825625	34.943127
66.917000	396.072998	1286.368042	-6.107500	-23.130625	41.020000
43.980999	418.520996	1346.391968	-5.158125	-41.343750	39.965626
111.813004	342.454010	1278.255005	5.145000	-38.473751	37.349377
4.514000	363.743011	1245.742065	9.703750	-25.961250	27.356874
4.758000	413.274994	1195.966064	4.585000	-31.661875	29.483126
42.395000	349.041992	1196.453979	10.714375	-20.278126	29.688749
-76.920998	402.661011	1175.409058	20.628124	-11.593750	27.225624
21.045000	415.287994	1156.316040	26.105625	-15.054375	28.345625
76.189003	384.178009	1111.541992	22.343124	-12.958750	15.776250
57.706001	424.011017	1136.613037	6.925625	-14.013125	3.456250
104.309998	355.446991	1122.400024	-0.188125	-8.741250	-2.388750
80.946999	357.459991	1061.521973	-8.929375	-2.616250	-7.437500
-406.321014	30.134001	1065.914062	-9.165625	-7.560000	0.993125
-377.834015	47.091999	1065.914062	-7.835625	-3.793125	-1.553125
-354.226990	8.845000	1048.223999	-1.828750	-3.119375	-4.869375
-336.476013	3.843000	1017.601990	-3.377500	-0.879375	-4.834375
-356.362000	-19.703001	979.843018	-3.390625	2.826250	-0.415625
-360.998016	-26.169001	938.973022	-5.197500	3.683750	0.888125
-306.037018	-90.767998	891.697998	-0.770000	1.631875	-9.996875
-245.951996	-235.887009	739.380981	7.581875	6.860000	-16.651251
-216.671997	-268.888000	672.341980	5.796875	11.300625	-19.569374
-308.171997	-201.483002	620.187012	6.807500	1.758750	-12.639375
-244.061005	-232.776001	597.739014	1.938125	-33.801250	-6.405000
-288.895996	-79.056000	751.153992	18.383751	-29.649376	5.880000
-349.529999	-25.681000	867.114990	20.409374	-13.050625	-7.966875
-241.804001	-41.358002	1081.041992	21.931875	-34.794376	3.224375
-215.695999	7.991000	988.932007	38.963749	-47.538750	9.506875
-186.904007	-10.736000	1071.343018	21.227501	-40.079376	27.938749
-160.856995	25.802999	1120.326050	6.702500	-47.796875	32.825626
-96.806999	61.061001	1235.432983	1.343125	-50.124374	29.251249
-123.890999	162.686996	1267.946045	-12.779375	-47.473125	35.258125
-74.114998	234.057007	1328.579956	-8.365000	-31.237499	23.708124
-53.131001	162.565002	1363.411011	-10.325000	-14.713125	25.536875
-29.829000	198.921005	1377.258057	-3.193750	-10.771250	36.330002
-51.423000	204.654999	1272.886963	6.715625	9.130625	34.492500
-205.447998	294.630005	1191.329956	8.391250	0.682500	38.998749
-43.493000	286.273010	1227.136963	13.313125	-3.250625	51.450001
-212.768005	311.954010	1164.245972	19.263124	-8.251250	59.889374
-85.583000	462.136017	1092.448975	5.341875	-42.695625	73.561249
51.484001	344.467010	1097.817017	-5.271875	-46.812500	71.618752
25.559000	374.174011	1157.901978	-19.551874	-43.413124	55.431252
52.704002	378.382996	1196.759033	-22.426250	-58.813126	45.950626
164.029007	230.641006	1179.618042	-17.495625	-58.896252	41.085625
79.726997	181.169998	1283.013062	2.467500	-52.276875	38.469376
175.740997	239.973999	1221.829956	19.503750	-53.668125	38.648750
213.682999	152.072998	1237.812012	24.456249	-41.566875	23.428125
213.865997	280.661011	1240.251953	17.605000	-22.400000	1.684375
191.356995	258.700989	1237.323975	4.191250	-0.835625	-2.638125
148.046997	266.509003	1192.183960	-5.193125	4.558750	-11.751250
135.847000	258.213013	1145.702026	-10.053750	1.238125	-13.055000
-298.290009	-13.176001	1075.674072	1.859375	0.402500	3.040625
-270.108002	-14.884000	1079.029053	1.456875	-1.102500	3.543750
-269.253998	-12.688000	1082.201050	2.765000	-2.730000	2.835000
-258.761993	-12.566000	1070.610962	3.412500	-0.043750	-0.065625
-227.774002	-32.939999	1031.815063	1.465625	0.258125	-0.608125
-214.232010	-71.187004	997.228027	2.314375	1.688750	1.610000
-204.899002	-83.997002	954.955017	2.292500	3.176250	6.011250
-206.667999	-136.335007	897.492981	3.863125	4.974375	10.508750
-212.462997	-95.831001	927.200012	8.531250	-4.418750	6.155625
-210.145004	-173.484009	874.312988	9.388750	-3.902500	4.239375
-247.843002	-84.424004	867.846985	1.496250	2.152500	-0.756875
-160.247009	-122.305000	787.265991	1.391250	-4.217500	1.907500
-217.587006	-51.179001	872.483032	-2.607500	-15.211875	6.125000
-146.095001	-84.667999	858.026001	-8.876875	-21.017500	8.465625
-170.983002	-110.471001	939.338989	8.741250	-15.071875	14.140000
-185.074005	74.907997	1103.062988	27.243126	2.730000	1.767500
-209.901001	45.262001	1098.061035	20.754999	-13.111875	10.788750
-178.486008	158.417007	1128.988037	7.888125	-26.114374	26.394375
-51.179001	98.209999	1101.843018	7.030625	-31.745001	36.535625
-110.531998	11.895000	1158.634033	-4.633125	-32.624374	51.856876
-40.687000	127.794998	1146.494995	-4.668125	-30.467501	66.556877
-26.718000	91.927002	1176.202026	2.366875	-26.740000	59.044998
11.407001	154.818008	1277.279053	5.888750	-28.686874	52.460625
-42.395000	252.845001	1287.709961	3.123750	-26.197500	41.615002
-26.596001	227.225006	1244.704956	-2.843750	-9.905000	28.621250
-32.269001	274.011993	1291.248047	-0.962500	-12.543125	22.942499
-45.993999	154.513000	1158.084961	1.509375	-0.420000	16.629375
-139.690002	100.955002	1225.428955	1.509375	17.622499	13.055000
-45.628002	189.222000	1186.145020	-5.241250	17.622499	13.055000
-45.628002	189.222000	1169.614014	9.288125	12.101250	11.843125
9.943000	273.463013	1169.614014	27.610624	17.233126	10.220000
-93.635002	512.095032	1161.744995	18.230625	-6.348125	21.503124
0.366000	383.567993	1127.890015	17.482500	-19.989374	32.318127
-8.113000	378.932007	1077.992065	7.525000	-12.000625	26.031250
-73.809998	418.399017	1208.348999	-1.185625	-34.654373	23.318750
-24.948999	328.606995	1240.251953	6.321875	-41.418125	15.321250
-64.598999	370.757996	1309.120972	14.993125	-28.406876	15.776250
-81.129997	391.437012	1323.456055	19.818750	-13.457500	16.559376
-287.005005	-176.716995	996.496033	-27.413750	10.766875	-4.230625
-189.160995	-145.057999	1037.061035	-12.600000	10.036250	-5.092500
-281.942017	-244.548996	963.861023	9.782500	14.371875	-9.231250
-329.644012	-161.345001	915.122009	12.127500	5.936875	-10.526250
-338.123016	-177.143997	959.041992	13.816250	-6.072500	-4.926250
-326.593994	-198.432999	967.765015	16.747499	-7.087500	-10.885000
-226.737000	-223.199005	906.093994	11.046875	-10.819375	-13.715625
-220.393005	-268.399994	855.585999	14.713125	-7.682500	-9.174375
-187.026001	-374.356995	822.523987	22.172501	-7.901250	-4.077500
-133.285004	-272.243011	742.979980	29.041250	-16.555000	5.197500
-232.959000	-231.068008	739.442017	26.328751	-15.526875	14.573125
-218.380005	-216.306000	726.022034	22.150625	-16.371250	4.633125
-186.538010	-68.014999	771.528015	14.455000	-35.157501	-3.364375
-94.306000	-162.138000	838.445007	11.760000	-36.841873	16.817499
-31.232000	-138.042999	1028.155029	38.937500	-6.453125	6.129375
85.460999	-28.670000	1081.957031	54.753124	17.364374	10.863125
-155.488998	19.276001	1056.458984	40.980625	13.776875	16.695000
-41.907001	127.124001	1077.687012	20.881874	21.494375	27.825001
-130.356995	212.097000	1163.575073	3.788750	-6.352500	35.774376
-77.287003	206.973007	1189.072998	11.453750	-38.110626	51.695000
-79.300003	330.131989	1218.414062	-4.318125	-57.710625	61.236874
-61.487999	328.790009	1274.961060	-11.226250	-64.434998	59.836876
12.566000	330.742004	1248.243042	-17.049376	-59.438751	71.863747
125.843002	323.239014	1264.286011	-23.646875	-48.369999	69.851250
73.626999	232.959000	1296.738037	-13.295625	-42.507500	54.359375
158.294998	346.175018	1336.083008	-4.681250	-43.610001	50.150623
74.603004	445.239014	1254.526001	4.847500	-34.584373	36.172501
120.779999	408.028992	1247.023071	21.144375	0.980000	27.650000
105.896004	580.354004	1128.805054	40.040001	18.514999	18.720625
126.696999	548.390015	1203.041992	17.451876	3.609375	15.308125
95.160004	466.406006	1323.089966	15.159375	-14.914375	23.848125
102.418999	404.795990	1312.049072	26.083750	-24.648750	24.845625
77.775002	406.992004	1225.185059	9.327500	-14.376250	15.176875
48.190002	277.733002	1169.308960	8.238125	-1.680000	13.960625
73.504997	252.235001	1176.629028	7.039375	-1.176875	10.797500
111.325005	277.916016	1143.018066	1.172500	-3.451875	-1.369375
110.288002	214.720001	1113.372070	-2.275000	1.824375	-6.720000
135.359009	249.917007	1131.123047	0.363125	0.822500	-10.880625
