A_X[mg]	A_Y[mg]	A_Z[mg]	G_X[dps]	G_Y[dps]	G_Z[dps]	
-181.352997	-124.928001	1093.791016	-4.777500	-6.877500	-0.441875
-156.098999	-148.169006	1105.563965	-1.968750	-9.817500	1.264375
-169.824005	-157.319000	1099.525024	-1.601250	-1.776250	2.572500
-196.725006	-121.451004	1125.572021	-2.813125	-3.075625	1.216250
-146.826996	-142.374008	1102.208984	-2.813125	-4.466875	0.638750
-121.572998	-196.847000	1062.437012	-0.516250	-4.466875	0.638750
-121.572998	-196.847000	1062.437012	0.013125	0.350000	0.074375
-104.554001	-244.000000	991.677002	0.336875	6.895000	-2.423750
-99.369003	-286.882996	905.666992	2.410625	10.281250	1.456875
-141.947006	-305.610016	913.718994	3.460625	12.201875	-1.106875
-127.612000	-304.268005	875.533020	7.039375	10.110625	0.555625
-109.678001	-320.738007	817.949036	6.151250	12.254375	-0.608125
-82.106003	-312.990997	737.246033	9.213750	10.539375	-1.509375
-157.257996	-226.859009	813.130005	6.440000	-2.528750	-0.056875
-49.410000	-333.791992	732.854004	10.806250	-14.953750	6.540625
-214.415009	-101.625999	908.229004	10.928750	-24.696875	-0.796250
-57.462002	-216.244995	874.252014	9.498125	-39.703125	11.383750
-111.325005	-45.506001	1171.505005	28.546875	-50.728127	22.973125
-33.184002	-49.410000	1045.296021	16.108749	-39.619999	21.665001
-20.984001	33.123001	1209.325073	16.226875	-34.816250	54.621876
-25.864000	65.270004	1152.107056	19.320000	-50.461250	51.248749
159.820007	-84.729004	1051.822998	18.287500	-59.731876	52.644375
-1.891000	101.382004	1165.161011	23.213751	-45.154373	35.857498
164.944000	94.245003	1108.431030	15.885625	-32.676876	36.561874
90.462997	190.014999	1268.860962	9.327500	-33.547501	49.551250
86.375999	197.335007	1243.729004	-6.479375	-22.671249	26.560625
263.825012	198.128006	1405.379028	-9.196250	-22.666876	26.066250
121.512001	121.756004	1282.463989	8.102500	-8.806875	22.728125
120.414001	226.309998	1285.453003	6.374375	9.073750	4.637500
141.214996	158.783005	1211.032959	8.343125	4.427500	2.231250
67.892998	232.654007	1268.312012	15.430625	5.145000	-4.449375
72.163002	215.695999	1229.577026	15.929375	4.265625	-3.535000
19.093000	220.149002	1307.352051	11.580625	-12.792500	-1.833125
46.116001	160.979004	1213.656006	14.481250	-17.346874	-1.513750
15.250000	197.578995	1156.010986	12.184375	-18.340000	0.170625
57.096001	193.248001	1171.443970	4.213125	-21.936251	9.996875
78.018997	119.621002	1215.608032	6.120625	-24.049376	18.554375
191.113007	131.028000	1266.786987	2.839375	-24.530624	15.863750
-147.925003	-158.722000	1078.052979	-0.660625	-14.070000	3.727500
-141.703003	-131.272003	1088.178955	2.515625	-10.167500	-2.196250
-122.549004	-149.572006	1085.433960	3.281250	-14.135625	-1.929375
-112.239998	-162.320999	1117.885986	1.137500	-12.040000	-0.848750
-117.120003	-177.388000	1103.489990	0.481250	-6.763750	-4.921875
-84.302002	-187.209000	1064.145020	-0.266875	-5.131875	-3.972500
-93.513000	-193.796997	1023.518982	-1.334375	-0.704375	-2.331875
-64.416000	-253.089005	951.051025	-2.380000	2.371250	-2.248750
-81.008003	-249.429001	937.570007	-2.576875	6.072500	-8.093750
-63.195999	-302.132996	871.202026	-4.707500	10.268125	-7.879375
-96.868004	-242.048004	901.702026	-8.627500	4.865000	-2.213750
-44.225002	-327.752991	886.085999	-8.636250	-1.242500	-5.635000
-133.041000	-223.260010	937.997009	-7.770000	-1.973125	0.415625
-49.348999	-291.519012	935.739990	-9.156875	-8.194375	3.088750
-64.660004	-273.218994	922.869019	2.419375	-15.408750	3.438750
16.531000	-190.014999	1040.233032	7.428750	-29.645000	-2.506875
-77.348000	-157.136002	963.678040	12.403125	-27.024376	16.581249
-87.291000	-155.061996	1123.315063	8.833125	-16.690624	17.167500
-29.402000	-176.350998	995.398010	15.750000	-22.238125	22.798124
-67.649002	-69.662003	1144.725952	14.686875	-29.736876	17.460625
43.615002	-187.819000	1003.816040	23.161249	-28.651875	19.600000
15.555000	67.161003	1124.839966	19.569374	-25.423124	23.988125
7.991000	-69.357002	1049.322021	13.033125	-16.257500	17.893749
109.983002	-71.248001	1017.480042	9.900625	-2.782500	26.394375
-58.011002	-19.947001	1137.040039	21.848749	6.615000	16.799999
-5.551000	-30.805000	1162.843018	16.248751	3.701250	16.677500
196.175995	18.056000	1151.863037	17.976875	-12.950000	41.260624
86.253998	33.793999	1167.174072	47.359375	-20.387501	36.421875
57.096001	139.201996	1207.983032	43.881248	-10.823750	32.672501
75.945000	67.282997	1146.677979	26.184376	-6.435625	27.776875
-17.446001	193.369995	1308.023071	11.449375	-1.548750	10.902500
36.417000	168.177002	1183.277954	22.728125	-3.635625	19.670000
-121.877998	250.404999	1334.680054	30.458750	-10.390625	37.445625
32.208000	264.496002	1271.605957	16.826250	5.455625	23.848125
66.917000	202.886002	1177.910034	15.872500	-0.818125	24.810625
-40.992001	304.329010	1196.880981	10.298750	-1.767500	24.101875
7.991000	216.733002	1197.552002	-0.896875	-12.512500	22.710625
109.373001	132.553009	1257.576050	10.740625	-45.674999	5.433750
-297.558014	-74.176003	1014.307983	-9.979375	15.719375	-2.038750
-259.799011	-113.033005	1005.463013	-4.217500	9.065000	1.461250
-348.371002	-47.031002	1030.229004	-1.540000	1.137500	-4.112500
-283.710999	-44.591000	1030.167969	-0.109375	-7.896875	0.739375
-250.466003	-86.558998	1074.332031	0.371875	-13.387500	-1.553125
-247.843002	-102.236000	1064.510986	-0.371875	-13.553750	-4.650625
-202.031998	-106.872002	1054.263062	-1.785000	-10.867500	-4.816875
-148.535004	-176.350998	1010.038025	2.515625	-4.392500	-5.337500
-153.841995	-187.087006	939.827026	3.290000	-0.603750	-6.164375
-104.798004	-249.612000	879.497986	4.265625	0.332500	3.294375
-120.048004	-205.447998	885.536987	9.646875	1.868125	0.083125
-141.703003	-279.075012	811.239014	14.678125	0.621250	4.777500
-188.612000	-67.344002	958.005005	16.808750	-11.445000	-0.630000
-126.880005	-252.662003	873.947021	10.946250	-13.453125	5.468750
-243.695007	51.545002	990.945007	13.335000	-8.750000	1.273125
-111.446999	-109.861000	1017.236023	0.227500	-25.208750	3.259375
21.655001	-72.528999	1011.441040	-3.736250	-29.273125	21.139999
-127.185005	20.496000	1076.711060	-2.314375	-23.415001	11.191250
-126.880005	12.749001	1064.023071	4.169375	-17.801874	19.438126
-109.068001	26.108000	1109.833984	7.297500	-9.970625	17.084375
-128.100006	52.338001	1144.786987	7.590625	-11.943750	23.865625
-83.204002	46.177002	1205.726074	-2.576875	-22.561874	18.261250
-51.240002	-21.777000	1100.989014	-9.397500	-24.254999	29.032499
-99.307999	20.130001	1253.916016	-10.797500	-27.571251	22.802500
27.084000	23.241001	1189.134033	-1.929375	-37.034374	25.646250
-42.395000	61.671001	1192.000977	5.267500	-30.506874	27.833750
0.244000	30.866001	1130.452026	6.090000	-29.575001	21.555626
27.572001	71.431000	1120.143066	1.811250	-26.184376	31.644375
-43.493000	45.688999	1187.120972	13.409375	-21.857500	24.941875
-7.869000	141.581009	1173.640015	20.282499	-23.069374	19.753124
119.376999	115.960999	1210.301025	5.726875	-16.069374	37.913750
273.279999	53.436001	1317.112061	17.088751	-12.796875	12.451250
15.677000	205.570007	1147.654053	23.331875	-10.613750	3.815000
52.643002	78.933998	1044.503052	24.906876	-15.400000	31.885000
86.010002	208.436996	1193.343018	30.996876	-18.331249	36.430626
3.538000	211.365005	1063.656982	21.205626	-14.262500	32.095001
152.682999	257.175995	1150.765015	23.113125	-27.842501	20.781250
163.479996	315.369995	1120.447998	0.048125	-30.379999	15.509375
-238.570999	-20.252001	1101.477051	-4.851875	3.526250	-0.280000
-263.214996	-13.969000	1085.067993	-8.754375	3.136875	1.045625
-256.993011	-12.322001	1077.931030	-6.973750	3.710000	3.438750
-275.597992	-32.330002	1068.536987	-5.298125	3.543750	0.669375
-261.812012	-45.750000	1044.869019	-4.230625	2.288125	1.828750
-224.296997	-103.273003	988.749023	0.144375	-0.446250	-2.655625
-146.888000	-213.988007	858.819031	0.144375	-0.153125	-9.191875
-123.890999	-310.612000	673.562012	2.121875	-0.153125	-9.191875
-123.890999	-310.612000	673.562012	-0.153125	10.675000	-2.445625
-104.126999	-297.924011	616.283020	-2.397500	12.586875	4.296250
-123.342003	-349.652008	551.074036	5.053125	3.933125	10.836875
-85.583000	-340.684998	638.487000	10.180625	-3.867500	5.792500
-165.675995	-300.303009	610.122009	17.101875	-9.646875	9.891875
-131.455002	-171.471008	789.523010	3.605000	-27.903749	22.198750
-23.912001	-265.716003	799.039001	2.143750	-45.176250	37.471874
-133.223999	-63.806000	944.341003	24.386250	-46.659374	39.344376
-78.750999	-16.836000	1176.323975	22.203125	-46.773125	49.240623
6.771000	-9.943000	1081.651978	29.303749	-52.285625	84.043747
-74.298004	95.770004	1315.648071	30.309999	-63.415627	53.195625
133.285004	222.223007	1388.604004	-22.614374	-72.012497	59.071251
-2.013000	246.378998	1499.075073	-30.686251	-54.267502	36.513748
66.673004	427.244019	1641.144043	-34.133751	-27.676250	5.153750
57.157001	281.515015	1624.430054	-12.512500	-18.471251	-5.101250
-91.072998	344.283997	1408.855957	33.503750	18.663750	-5.368125
-68.747002	545.218018	1463.695068	22.338751	28.625626	11.978750
10.370000	439.993011	1312.536987	17.276875	-0.157500	19.503750
-43.980999	489.037018	1290.211060	7.490000	-27.514376	26.499374
127.001999	323.360992	1262.151001	-9.865625	-26.586876	39.930626
68.259003	168.970001	1242.203979	-8.986250	-17.307501	24.219999
-18.483000	118.461998	1232.383057	0.743750	-14.389375	14.100625
44.652000	70.272003	1186.816040	2.944375	-14.070000	11.252500
-21.228001	47.519001	1176.140991	6.689375	-15.526875	3.893750
48.007000	63.806000	1167.357056	9.476250	-15.995000	4.917500
71.918999	83.142998	1157.963013	14.958125	-23.738750	3.928750
87.230003	107.177002	1142.286011	16.944374	-24.421249	9.305625
188.063004	139.080002	1108.125977	14.826875	-14.148750	19.372499
222.710999	161.223007	1067.195068	12.306875	-12.748750	10.941875
218.136002	137.188995	1064.449951	5.718125	0.695625	-2.668750
-375.821014	-52.826000	972.462036	-7.021875	-26.267500	-18.252501
-356.179016	-19.215000	1052.799072	-4.996250	-21.328125	-7.577500
-315.553009	-34.526001	1062.802979	1.907500	-14.227500	-0.752500
-304.634003	-33.184002	1095.193970	-3.508750	-13.243125	0.971250
-304.756012	-40.687000	1102.087036	-4.033750	-6.492500	-2.870000
-265.411011	-56.364002	1055.300049	-5.967500	-1.365000	-7.188125
-267.424011	-82.289001	994.666016	-4.554375	1.946875	-3.027500
-271.694000	-141.397995	911.645020	-0.630000	6.986875	-3.250625
-279.196991	-203.862000	791.475037	0.214375	6.593125	-6.571250
-214.658997	-259.554993	700.645996	-1.356250	3.460625	-5.709375
-297.313995	-160.735001	740.601013	1.754375	-4.886875	-6.593125
-248.270004	-241.926010	749.507019	-2.856875	-19.394375	-7.568750
-288.834991	-106.139999	897.614990	3.158750	-24.268126	-5.070625
-267.485016	-241.865005	948.489014	1.443750	-17.871876	-17.049376
-293.348999	-78.263000	975.268005	-4.900000	-16.988125	-22.369375
-189.587997	-220.332001	1046.211060	-24.093124	-25.930626	-27.908125
-163.906998	-88.999001	1047.735962	-11.641875	-20.982500	-9.336250
-205.753006	-97.539001	1167.174072	-8.894375	-27.225624	-5.613125
-55.144001	-237.290009	1078.906982	-4.414375	-28.354376	19.223749
-119.316002	-38.796001	1174.677002	16.060625	-17.709999	22.312500
-166.652008	-125.598999	1090.619019	8.382500	-20.243126	21.231874
-76.127998	-76.555000	1100.379028	10.206875	-20.790001	38.814999
-122.610001	-48.556000	1026.812988	27.426874	-12.420625	34.243126
-116.448997	-21.594000	1031.692993	13.186250	-10.141250	38.272499
-170.251007	121.939003	1071.464966	8.780625	-23.708124	44.559376
-95.281998	37.881001	1194.501953	22.491875	-40.503750	35.787498
-26.901001	142.251999	1226.953979	19.809999	-30.349375	32.611252
-84.119003	136.762009	1216.156982	10.259375	-28.192499	30.520000
10.370000	116.388000	1368.596069	10.985625	-20.286875	26.530001
-205.692001	118.461998	1107.821045	2.275000	-10.644375	25.016251
-141.641998	111.325005	1444.968018	10.688125	-4.169375	21.826876
-32.330002	169.824005	1265.811035	17.141251	17.408125	20.768126
-99.674004	188.794998	1105.747070	17.141251	17.408125	20.768126
-99.674004	188.794998	1333.582031	37.419376	23.900625	20.960625
-89.974998	397.658997	1333.582031	8.058750	17.285625	14.700000
-54.716999	201.848999	1112.761963	-18.519375	-15.518125	14.056875
-86.863998	122.122002	1126.426025	-16.905001	-28.586250	5.153750
-12.932000	145.240997	1242.997070	-12.735625	-35.450626	0.363125
-315.003998	-74.054001	1113.494019	-6.886250	-8.973125	0.761250
-346.235992	-42.212002	1127.768066	-6.374375	-5.578125	-3.250625
-305.792999	-71.003998	1098.732056	-6.671875	-1.470000	-2.625000
-319.640015	-47.396999	1093.608032	-8.544375	3.906875	-0.975625
-287.187988	-74.481003	1065.487061	-5.976250	4.633125	0.770000
-301.950012	-75.396004	1032.242065	-5.775000	4.318125	0.840000
-253.882004	-212.524002	969.533997	-7.170625	7.192500	-3.294375
-221.186005	-358.497009	836.981018	-3.167500	12.783750	-4.427500
-200.994995	-458.170990	657.885010	2.196250	21.393749	-2.808750
-148.169006	-412.360016	607.682007	10.246250	16.769375	-1.535625
-212.889999	-402.173004	513.986023	12.420625	11.528125	1.141875
-290.604004	-230.945999	619.393982	16.213751	5.674375	-1.028125
-217.770004	-298.290009	518.072998	15.019375	-2.445625	1.168125
-338.001007	-9.699000	673.074036	5.306875	-21.437500	17.644375
-145.363007	-153.841995	772.565002	-6.755000	-45.412498	14.761250
-65.209000	-82.044998	925.004028	17.093124	-44.327499	49.918751
-181.719009	12.322001	1105.380981	30.576876	-28.315001	48.090000
-208.193008	48.373001	1387.322998	5.267500	-35.634377	53.803749
-246.501007	299.326996	1414.468018	-10.311875	-56.240623	55.628124
-79.300003	277.244995	1632.115967	-52.171875	-79.445625	52.036251
-120.474998	228.872009	1473.150024	-39.729374	-24.587500	56.472500
-273.157990	294.080994	1463.084961	-43.662498	27.838125	27.212500
-218.319000	93.208000	1397.631958	-18.567499	36.898750	10.535000
-329.278015	246.074005	1137.588989	18.278749	37.187500	11.698750
-300.242004	270.535004	1217.376953	28.188126	0.455000	19.250000
-179.096008	251.807999	1140.578003	14.993125	-37.966251	18.939375
-132.858002	350.322998	1216.706055	-10.469375	-50.426250	8.566250
-45.932999	172.203003	1313.635010	-24.451876	-53.571877	-5.123125
-95.891998	187.757996	1300.825073	-48.238750	-46.545624	-17.780001
-32.452000	-4.453000	1335.717041	-51.078125	-26.670000	-23.340626
-195.382996	-38.430000	1223.781982	-23.375626	-25.007500	-39.305000
-119.316002	-155.367004	1225.855957	-17.526251	-40.897499	-35.192501
-69.600998	-173.606003	1177.300049	-2.655625	-34.488125	-22.981874
-12.078000	-131.028000	1185.779053	13.746250	-23.156876	-11.900000
40.443001	-119.926003	1178.337036	19.936874	-20.960625	-7.490000
47.763000	-75.517998	1153.204956	24.749374	-19.446875	-0.958125
76.982002	-67.039001	1174.799072	25.514999	-17.447500	1.583750
45.750000	-52.948002	1124.962036	24.587500	-14.091875	-2.082500
-194.102005	-76.311005	1082.445068	-2.773750	-1.649375	-9.585625
-106.139999	-129.503006	1044.136963	-7.096250	-5.635000	-5.162500
-97.783005	-137.677002	1076.650024	-1.268750	-13.706875	0.949375
-83.692001	-138.104004	1062.498047	-1.176875	-8.470000	2.331875
-62.646999	-146.216995	1058.228027	0.818125	-11.265625	2.047500
-71.918999	-169.275009	1011.014038	1.071875	-3.679375	0.420000
-3.599000	-243.817001	921.527039	3.215625	1.500625	-2.765000
-16.531000	-261.201996	874.130005	-0.315000	7.035000	-8.566250
27.694000	-361.669006	776.164001	2.108750	5.613125	7.013125
-42.761002	-227.042007	884.988037	5.967500	5.394375	6.028750
3.538000	-340.380005	783.057007	7.376250	4.396875	10.683750
-95.465004	-139.690002	961.543030	11.567500	-3.206875	32.961250
-47.458000	-263.641998	892.125000	10.968125	-3.119375	30.572500
-93.208000	-20.984001	1061.765991	10.272500	-8.960000	39.165001
-133.772995	-28.731001	1059.082031	-0.638750	-9.590000	27.348125
44.591000	-35.319000	1085.190063	-7.043750	-24.885000	52.806252
-27.267000	-17.263000	1096.901978	8.176875	-22.850624	54.744373
-66.306999	-79.178001	1105.259033	11.095000	-30.756250	51.384377
-43.493000	1.403000	1167.540039	7.516250	-40.433750	52.469376
17.690001	-66.551003	1208.471069	-18.926250	-46.396873	30.699375
54.839001	58.438000	1254.037964	-26.210625	-47.985001	14.288750
126.086998	-177.753998	1126.426025	-11.274375	-34.243126	14.459375
217.647995	1.037000	1458.937012	-20.216875	-40.928123	17.876249
74.298004	-17.446001	1224.391968	2.515625	-37.585625	10.158750
154.757004	75.639999	1297.713989	-1.846250	-31.268126	9.248750
190.380997	5.673000	1194.441040	1.063125	-3.845625	-0.630000
94.793999	56.547001	1121.363037	18.497499	17.780001	2.821875
177.570999	72.223999	1173.701050	13.304375	11.379375	22.758751
193.369995	20.740000	1092.144043	18.886875	3.762500	26.753124
81.496002	62.586002	1112.457031	30.200624	-1.071875	24.294374
174.216003	137.128006	1294.786011	10.609375	-14.577500	17.815001
120.231003	59.535999	1183.521973	30.314375	-30.069374	17.386250
143.410995	126.696999	1334.557983	18.913124	-18.064375	17.408125
230.641006	126.880005	1155.035034	5.910625	-22.623125	16.148125
92.720001	117.181000	1151.192017	4.891250	-24.644375	0.673750
246.684006	85.643997	1113.067017	-0.529375	-25.519375	-8.155000
209.535004	55.144001	1144.848022	5.341875	-29.575001	-21.135626
220.576004	52.948002	1184.925049	8.671250	-30.791250	-19.950001
-311.161011	7.625000	1096.597046	-5.613125	0.625625	-6.335000
-234.606003	-6.710000	1093.608032	-5.092500	-3.556875	-4.296250
-235.704010	42.334000	1082.567017	-3.167500	-0.861875	-2.065000
-222.893997	-7.808000	1072.318970	-2.996875	-2.668750	0.686875
-244.671005	50.142002	1080.370972	-6.374375	-3.679375	-0.765625
-193.186996	-15.494000	1066.890015	-8.281875	-0.726250	4.335625
-163.479996	-65.026001	1018.333984	-2.139375	12.473125	-1.155000
-111.813004	-181.231003	925.858032	3.937500	12.425000	-7.008750
-30.439001	-237.595001	842.348999	3.701250	6.938750	2.174375
-139.690002	-266.936005	801.601013	6.006875	15.505000	9.537500
-113.582001	-221.307999	761.463013	12.442500	16.524376	13.947500
-228.688995	-192.882004	756.095032	11.987500	13.313125	15.203125
-208.436996	-174.277008	767.257996	12.788125	14.682500	9.673125
-352.824005	18.605000	847.473022	12.788125	10.281250	3.618125
-204.044998	-95.953003	877.057983	6.164375	10.281250	3.618125
-204.044998	-95.953003	1033.706055	1.688750	1.605625	11.838750
-386.923004	198.981995	1033.706055	6.168750	-4.904375	18.703125
-267.058014	68.990997	1110.322021	-6.921250	-12.823125	25.313749
-97.844002	71.675003	1181.143066	-6.759375	-26.219376	52.044998
-147.132004	36.478001	1251.415039	4.081875	-24.399376	37.073750
-136.395996	120.231003	1256.905029	5.228125	-35.809376	47.578125
-180.011002	231.983002	1225.368042	-3.504375	-35.485626	55.317501
-124.745003	194.041000	1298.812012	-3.412500	-32.462502	45.565624
-187.514008	256.200012	1208.837036	-6.969375	-17.626875	50.763126
-116.448997	198.798996	1098.488037	-10.421250	2.786875	42.953751
-123.403000	386.984009	1299.544067	-5.744375	1.382500	30.205000
-115.107002	347.273010	1079.456055	-11.510625	-1.448125	36.426250
-140.117004	431.941010	1332.178955	-12.936875	-10.176250	33.035625
-145.180008	482.083008	1396.594971	-0.350000	-13.028750	28.608126
-189.466003	212.462997	1082.261963	0.056875	0.441875	49.148750
-153.415009	259.006012	1064.572021	16.139376	-7.100625	42.940624
-136.762009	286.700012	973.559998	20.260626	-35.105000	32.930626
-76.615997	385.093018	1164.062988	3.880625	-52.845627	18.633125
-3.904000	361.058990	1207.067993	-10.115000	-50.334373	11.694375
66.306999	219.966003	1257.636963	-5.228125	-38.316250	11.278750
101.565002	303.231018	1290.638062	2.747500	-7.455000	9.511250
1.769000	273.890015	1225.612061	9.108750	20.103125	12.753125
-118.278999	264.191010	1221.098022	6.155625	17.753750	6.461875
-352.031006	-182.572998	822.768005	-2.156875	26.184376	-1.780625
-475.067993	-154.451996	800.869019	-0.809375	27.378750	-1.881250
-455.975006	-151.828995	849.669006	-2.817500	10.675000	-3.583125
-507.703003	-168.115997	851.437988	-1.067500	4.506250	3.093125
-478.484009	-197.395996	872.117004	-0.748125	5.893125	-1.461250
-522.830994	-139.201996	853.634033	-2.563750	1.627500	-2.970625
-471.591003	-143.350006	878.216980	-3.972500	-2.738750	-4.217500
-466.589020	-146.033997	870.408997	0.315000	-8.006250	-3.871875
-406.626007	-192.882004	818.192993	-2.633750	-7.848750	-0.625625
-352.885010	-219.904999	792.328979	-1.666875	-9.524375	2.410625
-285.296997	-256.444000	709.613037	3.775625	0.918750	-0.070000
-328.972992	-316.101990	657.945984	3.670625	-3.749375	10.609375
-272.487000	-271.937988	775.249023	7.280000	-12.070625	10.911250
-373.625000	-236.253006	742.369995	14.472500	-11.510625	9.979375
-303.352997	-197.578995	850.096008	7.354375	-27.860001	15.850625
-327.020996	-194.712006	918.965027	10.766875	-36.487499	18.401251
-271.877014	-170.738998	961.481995	11.970000	-33.105625	23.979376
-244.732010	-127.612000	1093.302979	8.588125	-51.034374	36.478748
-242.779999	-195.626999	1001.254028	1.133125	-36.793751	42.953751
-199.104004	-73.809998	1132.953003	-3.801875	-35.918751	48.562500
-135.542007	-98.027000	1086.287964	-3.101875	-47.547501	58.148125
-209.413010	12.200000	1128.255981	0.945000	-36.833126	62.803123
-253.089005	172.081009	1157.657959	5.840625	-39.886875	51.795624
-155.733002	206.485001	1280.390015	-5.403125	-57.723751	52.263748
-111.996002	219.112000	1302.166992	-5.792500	-67.195625	50.281876
-181.475006	223.565002	1247.510986	-4.764375	-59.482498	43.793751
2.440000	221.063995	1342.488037	-12.368125	-60.593750	51.008125
-40.687000	125.781998	1297.836060	1.041250	-46.121250	40.105625
-42.577999	189.466003	1335.107056	9.870000	-15.308125	21.280001
83.082001	100.100998	1111.114990	0.861875	-4.375000	30.891874
-7.625000	151.462997	1237.629028	7.021875	14.551250	12.573750
163.479996	147.132004	1197.613037	14.078750	-0.004375	7.997500
-97.051003	204.472000	1082.322998	20.291250	-9.533125	21.516251
-23.302000	229.542999	1191.329956	11.703125	2.030000	2.638125
33.062000	189.649002	1131.427979	1.806875	-4.624375	-10.521875
2.196000	214.658997	1252.086060	2.581250	-20.593124	-9.568125
56.791000	230.458008	1336.571045	1.089375	-22.968750	-5.442500
-38.917999	237.960999	1322.358032	10.206875	-20.400625	-4.226250
-484.401001	146.400009	971.364014	-8.723750	5.258750	-3.723125
-482.083008	160.186005	968.436035	-4.235000	1.190000	-0.511875
-496.783997	155.306000	948.306030	-0.835625	0.332500	-0.266875
-480.436005	130.479004	939.338989	-3.885000	-4.698750	3.701250
-462.807007	105.957001	924.760010	-2.655625	-1.780625	-0.043750
-456.951019	72.223999	897.371033	-1.938125	-5.516875	-3.473750
-358.252991	7.930000	868.273987	-2.633750	-9.769375	0.293125
-359.167999	-44.834999	842.348999	2.034375	-4.781875	0.498750
-325.069000	-61.610001	786.960999	-1.820000	-6.308750	0.888125
-365.572998	-64.660004	800.320007	-6.230000	-14.000000	8.706250
-346.419006	-28.609001	810.934021	-1.133125	-15.408750	10.911250
-428.585999	23.363001	832.955017	-0.140000	-27.580000	12.320000
-324.153992	94.000999	920.307007	-12.473125	-41.435623	23.690624
-378.261017	220.759003	949.892029	-11.961250	-33.298126	25.541250
-268.765991	97.356003	942.877014	-7.573125	-34.895000	26.101250
-292.006989	219.477997	994.848999	-6.650000	-42.262501	26.145000
-238.570999	155.794006	1007.720032	-11.025000	-40.079376	24.342501
-159.210007	28.426001	1045.479004	-20.846874	-46.685623	42.433125
-191.417999	205.630997	1095.620972	-17.955000	-56.109375	19.140625
-45.079002	64.903999	1132.343018	-32.847500	-66.631248	15.137500
-27.572001	173.606003	1186.999023	-23.581249	-59.486874	20.991249
35.990002	174.826004	1213.046021	-28.109375	-52.976875	4.755625
-12.932000	165.859009	1234.578979	-31.500000	-56.419998	19.302500
53.618999	230.885010	1269.104980	-28.428749	-51.555000	16.318750
70.393997	136.639999	1221.219971	-27.562500	-52.744999	40.306873
126.575005	47.519001	1162.721069	-1.894375	-44.585625	45.718750
78.933998	104.249001	1089.886963	3.653125	-39.099377	44.397499
114.862999	9.394000	1173.091064	-3.215625	-45.928749	36.946877
101.138000	60.695000	1117.458984	12.980625	-37.830624	17.885000
212.707001	207.705002	1203.224976	-13.846875	-34.820625	16.550625
246.135010	3.782000	1376.587036	0.861875	-23.743126	8.548750
157.440994	158.356003	1193.464966	35.866249	8.111250	2.454375
142.496002	255.773010	1281.976074	27.750626	1.833125	11.331250
125.660004	249.429001	1225.672974	14.945000	-23.826250	24.259375
218.380005	181.352997	1204.201050	9.266250	-24.924376	21.087500
251.076004	168.542999	1208.593018	8.238125	-18.611250	12.464375
223.931000	159.270996	1120.630981	4.808125	-10.460625	4.816875
223.992004	208.559006	1101.660034	-2.511250	-6.899375	1.190000
-97.112000	-63.928001	1131.733032	-2.253125	-2.187500	-1.045625
-94.733002	-56.791000	1106.479004	-2.253125	1.505000	-2.113125
-118.523003	-66.551003	1097.938965	-1.579375	1.505000	-2.113125
-118.523003	-66.551003	1083.604004	-1.553125	0.765625	2.331875
-115.595001	-65.391998	1083.604004	-2.550625	3.001250	0.581875
-98.332001	-93.025002	1055.360962	-4.353125	1.623125	3.031875
-73.261002	-104.981003	1019.309998	-5.066250	2.008125	3.933125
-40.748001	-199.470001	941.840027	-6.142500	4.003125	3.101875
-58.438000	-224.541000	878.033997	-6.514375	4.173750	9.738750
-9.882000	-267.118988	782.874023	-6.361250	2.856875	17.443125
-37.637001	-206.912003	810.812012	-1.566250	4.598125	15.566250
-55.510002	-248.574997	795.806030	-1.588125	-8.470000	28.297501
-142.800995	-106.750000	886.695984	0.087500	-16.016874	27.947500
-27.632999	-195.626999	887.794006	-3.145625	-28.975624	29.356251
-102.846001	12.261000	1026.751953	-4.628750	-26.477501	31.176250
19.032000	-104.737000	901.091980	-2.436875	-22.198750	34.544998
-68.502998	73.261002	1075.490967	7.350000	-36.531250	24.648750
24.278000	40.260002	990.700989	1.955625	-55.107498	31.793125
102.723999	12.993000	1074.149048	15.430625	-62.208126	48.212502
87.230003	63.744999	1140.639038	17.237499	-69.291252	25.707500
329.338989	35.441002	1196.393066	16.673124	-79.918121	25.248125
285.785004	84.729004	1249.341064	25.436251	-74.143127	24.605000
335.011993	41.053001	1234.761963	10.443125	-63.936249	34.868752
314.515991	94.367004	1351.698975	15.382500	-47.503750	25.659374
328.179993	115.960999	1300.641968	18.414375	-42.853127	22.487499
393.877014	115.655998	1296.859985	12.656875	-28.105000	23.445625
324.337006	96.989998	1253.367065	12.438125	-20.155624	16.038750
407.541016	149.755005	1237.079956	0.765625	-16.795626	16.865625
381.311005	101.625999	1163.575073	-1.470000	-7.857500	15.981875
277.855011	68.442001	1066.890015	-3.373125	-0.424375	13.510000
491.050018	163.906998	1222.562012	-5.044375	3.298750	13.632500
347.578003	-7.320000	1047.004028	14.638750	15.531250	11.256875
236.802002	239.363998	1173.701050	27.453125	22.386875	9.922500
348.005005	129.807999	1144.238037	3.959375	-3.823750	17.132500
232.959000	145.423996	1075.857056	1.325625	-17.377501	8.745625
376.065002	142.374008	1112.091064	-4.344375	-21.713125	5.324375
353.251007	45.506001	1143.140015	7.411250	-19.053125	-3.045000
319.761993	141.581009	1187.060059	8.456875	-13.868750	-1.163750
-76.372002	-101.808998	1115.263062	-1.465625	-3.653125	0.971250
-26.901001	-110.959000	1098.609985	4.821250	-3.211250	1.881250
-97.417000	-87.778999	1116.056030	4.900000	0.726250	-0.323750
-42.028999	-106.139999	1070.550049	1.798125	-1.925000	-0.796250
-95.343002	-112.301003	1074.026978	-1.360625	-2.047500	-0.205625
-30.316999	-194.589996	1037.671021	-7.660625	-2.673125	1.036875
35.806999	-211.182007	934.458984	-1.855000	-4.016250	-2.765000
89.853004	-332.998993	825.574036	7.000000	-1.736875	-8.986250
-4.636000	-237.900009	782.080994	13.676250	1.662500	-7.078750
-42.272999	-271.937988	749.080017	17.010000	1.172500	-0.048125
-41.358002	-137.005997	788.546997	22.785000	-0.739375	1.312500
-105.529999	-142.923004	840.031006	4.488750	-15.347500	-3.556875
1.586000	-139.628998	889.441040	5.092500	-37.961876	19.963125
-35.685001	-45.383999	1048.895020	6.628125	-37.686249	18.059999
107.177002	-189.893005	940.619995	-0.739375	-39.261250	22.513750
119.559998	132.369995	1269.471069	2.441250	-48.623749	44.563751
157.197006	-91.072998	1143.505981	4.536875	-51.520000	39.816875
214.110001	-39.955002	1189.011963	7.288750	-43.071877	49.962502
200.811996	-54.167999	1166.259033	9.975000	-38.696877	30.082500
306.951996	-109.128998	1109.773071	5.486250	-48.426876	23.047501
248.087006	-48.434002	1158.390015	4.746875	-43.281876	18.790625
321.104004	-56.669003	1120.386963	-2.498125	-41.632500	23.358126
322.324005	23.851000	1231.895020	3.692500	-30.931250	20.794374
259.006012	-0.671000	1197.917969	8.264375	-21.800625	11.843125
352.213989	-26.413000	1212.802002	5.626250	-6.864375	15.365000
361.669006	-2.379000	1175.286987	24.158751	3.985625	12.254375
281.088013	43.675999	1247.693970	25.379375	5.945625	8.522500
284.687012	113.399002	1240.312988	13.877500	-6.317500	8.706250
292.251007	83.936005	1243.729004	12.193125	-10.530625	7.704375
279.929016	118.889000	1284.233032	12.193125	2.056250	11.151875
188.856003	111.203003	1125.693970	10.377500	2.056250	11.151875
188.856003	111.203003	1184.864014	11.571875	16.896250	14.892500
224.053009	50.020000	1184.864014	13.973750	15.911875	21.861876
297.558014	41.174999	1130.146973	20.479376	-3.268125	12.486250
215.574005	94.855003	1127.768066	25.786249	-23.362499	2.996875
454.632996	133.041000	1220.488037	11.886875	-40.197498	5.280625
379.054016	72.468002	1145.458008	17.889376	-34.247501	5.748750
295.789001	124.257004	1073.051025	16.130625	-19.915001	6.706875
-102.663002	-81.739998	1135.453979	-1.185625	0.135625	1.640625
-117.608002	-88.999001	1092.083008	-0.039375	2.817500	0.428750
-130.479004	-55.205002	1097.328979	-1.575000	-1.868125	3.622500
-134.688004	-95.098999	1104.161011	-1.448125	-1.732500	4.305000
-130.235001	-71.308998	1084.946045	-2.664375	1.640625	1.290625
-83.326004	-116.388000	1021.627991	-2.471875	2.148125	1.277500
-99.307999	-162.748001	964.471008	1.225000	3.705625	0.686875
-88.084000	-230.335999	862.234985	3.950625	5.188750	0.621250
-101.382004	-219.600006	790.864990	9.380000	4.453750	3.806250
-121.634003	-253.638000	745.786011	13.094375	-4.628750	5.372500
-179.035004	-152.438995	855.830017	6.916875	-19.276251	9.699375
-136.639999	-156.281998	888.648010	9.988125	-20.138124	10.381875
-147.803009	-44.347000	981.246033	9.003750	-22.977501	3.902500
-8.052000	-174.643005	900.359985	0.560000	-33.280624	6.221250
-76.677002	40.992001	1070.427979	-11.676875	-39.851875	15.780625
91.744003	-162.992004	997.289001	-15.789375	-44.625000	21.157499
43.431999	41.663002	1162.660034	-12.280625	-42.927502	21.629999
97.173004	-58.865002	1203.713013	-23.205000	-38.556873	17.351250
229.542999	-99.857002	1184.742065	-16.318750	-45.215626	39.081875
105.774002	-70.028000	1229.027954	-4.878125	-30.174376	27.693750
186.843002	-100.650002	1247.389038	-6.737500	-31.587500	22.504999
216.061996	-142.190994	1131.977051	5.967500	-29.378124	25.606874
143.044998	-75.091003	1211.643066	24.325001	-15.750000	17.390625
185.684006	-16.348000	1143.567017	8.710625	-22.688749	25.401251
220.149002	-85.095001	1120.143066	5.368125	-37.489376	19.901875
165.737000	-26.962000	1137.406006	4.510625	-36.820000	13.251875
288.407990	-79.483002	1143.567017	-4.554375	-48.667500	12.643750
279.196991	-89.731003	1199.808960	4.965625	-47.258751	5.971875
256.139008	-5.063000	1118.862061	3.701250	-17.421249	17.946251
339.709015	23.668001	1156.376953	0.630000	1.369375	24.609375
267.118988	-9.150001	1122.644043	14.240625	-16.909374	10.513125
298.290009	42.395000	1253.610962	25.733749	-43.049999	-5.455625
337.390991	103.700005	1189.622070	38.351250	-43.356251	-7.936250
426.268005	82.532997	1233.664062	41.339375	-47.989376	-4.646250
473.115997	85.583000	1172.297974	40.560623	-35.144375	1.618750
413.519012	83.447998	1167.906006	52.605000	5.499375	-4.545625
365.390015	292.373016	1178.458984	46.204376	23.948750	9.458750
324.703003	206.485001	1041.087036	27.356874	22.338751	26.788124
-91.134003	-98.942001	1102.758057	-1.684375	-9.388750	-0.100625
-90.402000	-106.567001	1104.832031	-0.953750	-9.388750	0.665000
-78.445999	-96.624001	1118.008057	-1.413125	-7.363125	1.426250
-77.225998	-104.371002	1112.578979	-1.260000	-5.000625	0.945000
-61.366001	-77.348000	1121.607056	-5.048750	-4.410000	-0.201250
-50.996002	-117.303001	1091.534058	-3.640000	-6.816250	1.802500
-57.767002	-133.346008	1076.650024	-1.675625	-2.603125	1.500625
-43.920002	-153.841995	1037.182983	-1.089375	-2.918125	0.918750
-58.804001	-142.862000	1016.992004	-3.154375	-4.681250	2.375625
-60.756001	-192.882004	955.869995	-1.299375	-3.316250	4.361875
-58.438000	-189.283005	912.621033	-0.433125	-2.310000	2.572500
-73.566002	-207.400009	903.958984	0.363125	-8.159375	4.659375
-65.819000	-164.212006	967.582031	1.710625	-18.681250	6.186250
-13.359000	-237.229004	922.929993	1.229375	-20.256250	10.110625
-46.237999	-96.136002	1036.328979	-2.283750	-22.290625	6.138125
9.821000	-195.626999	1032.485962	-12.670000	-33.359375	11.567500
48.861000	-172.447006	1069.390991	-1.728125	-28.433125	22.920626
74.786003	-195.139008	1096.414062	-5.241250	-20.969376	11.515000
46.665001	-132.979996	1150.520996	-3.583125	-22.916250	16.240000
42.821999	-84.912003	1200.662964	-14.717500	-19.906250	18.375000
124.623001	-169.153000	1133.135986	-19.416250	-20.488125	26.600000
129.503006	-122.854004	1129.109985	-14.861875	-9.961875	30.839375
144.447998	-247.904007	1090.375000	-9.091250	-3.316250	22.185625
93.085999	-133.041000	1042.612061	9.839375	2.152500	7.555625
71.431000	-190.990997	1037.061035	11.296250	1.452500	-0.560000
162.869995	-163.723999	1053.348022	14.971250	-10.206875	8.207500
94.000999	-199.591995	1042.551025	22.802500	-4.466875	4.309375
74.419998	-150.121002	1055.177979	31.578751	-9.992500	6.628125
87.108002	-61.732002	1032.912964	35.840000	-14.253750	7.161875
125.477005	-113.216003	1027.057007	29.089375	-22.789375	9.393125
161.955002	-50.264000	1017.296997	32.532501	-30.135000	9.515625
135.847000	-86.925003	1029.802002	44.292500	-18.681250	-2.174375
194.956009	48.068001	1127.097046	51.721249	-18.243750	-4.471250
143.289001	95.526001	1153.144043	49.866249	-11.383750	-5.000625
180.011002	95.281998	1187.487061	46.777500	-0.761250	-2.918125
169.275009	173.850006	1274.107056	27.925625	-5.446875	13.680625
279.623993	127.368004	1183.948975	18.930626	-21.953751	19.171249
351.177002	170.311996	1283.989014	24.508751	-15.067500	26.792500
-366.061005	242.048004	1001.742004	11.313750	-9.572500	-9.100000
-264.923004	138.287003	1089.276978	8.785000	-5.411875	-6.326250
-303.475006	183.610001	1061.583008	4.493125	-0.455000	-5.035625
-293.166016	223.565002	1077.992065	-0.328125	-5.394375	4.996250
-321.835999	235.337997	1037.182983	2.751875	2.887500	-1.592500
-274.622009	166.347000	1015.345032	1.089375	-1.351875	1.036875
-239.913010	151.645996	967.704041	1.938125	1.172500	2.025625
-214.537003	75.884003	897.737000	1.303750	6.619375	4.296250
-249.612000	88.328003	860.283020	-0.853125	4.007500	11.825625
-231.921997	86.253998	851.621033	2.677500	-4.869375	13.330625
-278.037994	139.751007	876.020996	2.301250	-9.515625	15.850625
-222.223007	163.662994	881.389038	-3.491250	-17.574375	23.830626
-279.929016	229.055008	950.319031	-2.213750	-20.597500	26.858126
-182.938995	246.318008	927.749023	-2.213750	-15.820000	25.620001
-254.186996	271.998993	1016.992004	-5.941250	-15.820000	25.620001
-254.186996	271.998993	1006.561035	-2.559375	-21.157499	27.671875
-177.509995	273.157990	1006.561035	1.133125	-13.221250	21.612499
-177.266006	327.020996	1051.151978	-2.655625	-21.634375	32.134377
-189.283005	353.678009	1070.977051	-9.546250	-17.399376	27.505625
-68.076004	221.979004	1125.389038	-12.530000	-9.738750	30.502501
-156.343002	378.566010	1066.828979	-5.495000	-16.056250	24.478125
-129.197998	326.838013	1054.994995	-15.386875	-27.129375	19.691875
-59.719002	243.938995	1057.922974	-24.355625	-30.537500	26.118750
-52.643002	314.821014	1040.660034	-22.968750	-18.059999	16.340626
-18.849001	260.287018	1129.963989	-20.833750	-20.510000	19.910625
-31.049000	340.684998	1092.937012	-15.741250	-23.848125	26.232500
32.330002	267.972992	1143.811035	-26.145000	-24.771250	25.952499
22.509001	305.183014	1154.364014	-30.681875	-21.376249	27.230000
18.056000	287.432007	1236.775024	-34.028751	-21.118126	29.540001
51.789001	247.843002	1238.300049	-30.996876	-21.043751	27.811874
-11.224000	284.565002	1153.571045	-35.328125	-30.633751	36.277500
96.380005	110.776001	1260.625977	-26.849375	-45.167500	45.727501
99.857002	92.842003	1156.743042	-11.860625	-42.061249	40.258751
192.882004	72.590004	1188.401978	-13.645625	-36.876877	33.092499
291.153015	120.536003	1170.956055	1.111250	-17.307501	17.355625
152.865997	174.887009	1167.417969	11.046875	-9.366875	13.256250
191.235001	165.492996	1099.646973	1.531250	-14.568750	19.201876
160.063995	189.404999	1076.100952	-12.031250	-4.510625	11.567500
-210.266998	-47.885002	1101.843018	-1.785000	-3.994375	0.577500
-214.354004	-75.579002	1085.312012	4.379375	0.446250	-3.679375
-221.490997	-75.029999	1047.065063	7.485625	3.640000	-7.940625
-207.643997	-82.167000	1016.382019	4.633125	-3.644375	-2.485000
-196.298004	-97.112000	995.520020	2.751875	-5.503750	-0.336875
-153.354004	-134.382996	926.406982	0.896875	-3.500000	1.999375
-169.701996	-98.392998	903.471008	-1.347500	-5.626250	4.751250
-120.353004	-186.721008	910.669006	0.997500	-10.311875	4.921875
-188.063004	-78.933998	934.215027	2.117500	-10.915625	2.419375
-98.820000	-136.091003	920.002014	3.526250	-22.036875	5.845000
-164.456009	-72.346001	977.220032	8.610000	-25.615625	1.688750
-76.494003	-101.992004	985.088989	-2.248750	-28.013124	-3.040625
-83.387001	-3.599000	1002.962036	1.233750	-30.996876	2.384375
-63.500999	-58.376999	1070.244995	-0.905625	-36.054375	0.931875
6.405000	-15.982000	1037.000000	-1.474375	-39.300625	16.261875
-93.269005	117.913002	1132.953003	-0.634375	-34.291248	18.764376
15.860001	-25.620001	1098.244019	-7.651875	-42.345627	29.172501
94.672005	-9.516000	1104.526978	-11.751250	-44.690624	39.987499
-9.333000	109.433998	1159.061035	-7.822500	-34.654373	22.605625
19.153999	-28.182001	1161.867065	-18.681250	-35.638748	22.155001
174.826004	-87.047005	1234.761963	-7.520625	-23.248751	40.271873
132.186996	-114.862999	1226.405029	6.706875	-20.842501	32.401249
131.272003	-112.849998	1210.605957	8.701875	-22.680000	17.570000
212.585007	-87.413002	1239.398071	8.194375	-24.062500	13.072500
180.804001	-88.694000	1204.140015	13.216875	-10.797500	6.440000
117.363998	8.845000	1150.155029	17.281250	-3.854375	9.432500
123.280998	14.335000	1166.442017	12.328750	-11.108125	9.681875
143.777008	39.345001	1116.666016	20.195000	-11.326875	0.183750
94.183998	203.800995	1136.369019	30.721251	-11.865000	10.368750
124.318001	198.188995	1176.629028	18.628750	-12.075000	19.433750
177.570999	144.630997	1084.336060	17.390625	-8.369375	18.646250
94.733002	214.415009	1170.162964	8.106875	-15.316875	21.139999
230.824005	106.139999	1210.789062	0.371875	-23.988125	23.336250
196.542007	161.955002	1181.692017	7.787500	-38.465000	18.480000
234.544998	108.153000	1151.436035	3.456250	-47.669998	15.990625
349.713013	85.095001	1255.380005	7.406875	-51.029999	7.730625
316.223999	146.033997	1253.306030	6.094375	-45.224377	5.311250
377.223999	40.687000	1200.419067	8.780625	-21.559999	6.593125
-162.016006	-212.645996	1083.055054	-3.430000	-1.316875	-2.594375
-173.789001	-183.365997	1070.977051	-4.055625	0.345625	-1.456875
-138.653000	-223.565002	998.752991	-2.948750	1.413125	0.205625
-149.389008	-239.363998	978.195984	-1.846250	-0.070000	0.275625
-126.453003	-242.658005	962.213989	0.078750	-4.270000	-0.315000
-100.162003	-264.191010	928.298035	7.175000	-6.741875	0.406875
-116.875999	-270.412994	928.908020	11.156250	-8.855000	-2.170000
-93.513000	-273.036011	913.291992	19.512501	-11.663750	3.001250
-127.124001	-196.298004	987.101990	25.816875	-13.094375	0.931875
-94.428001	-240.035004	974.475037	20.212500	-14.153125	5.923750
-76.432999	-160.917999	1042.307007	10.228750	-15.325625	12.626250
-44.896000	-163.358002	1007.720032	15.006250	-14.608125	14.835625
-124.928001	-129.807999	1020.286011	6.510000	-15.286250	13.798750
-45.993999	-105.103004	1061.888062	5.009375	-19.932501	18.694374
-92.475998	-93.085999	1052.432983	0.328125	-21.100624	23.174376
17.690001	-136.578995	1097.024048	3.561250	-18.834375	30.401875
-124.440002	73.016998	1167.600952	4.585000	-13.881875	27.794374
-5.856000	-40.687000	1170.895020	-17.303125	-27.645624	28.883751
150.059998	-67.649002	1158.328979	-5.180000	-24.500000	44.944374
54.411999	-132.613998	1046.150024	11.265625	-6.374375	40.980625
39.040001	-139.018997	1065.364990	34.225624	6.496875	31.049376
-5.002000	-22.631001	1045.417969	50.277500	12.416250	20.728750
-82.716003	-1.037000	1089.093994	42.371876	1.846250	11.191250
-60.938999	152.134003	1138.442993	18.611250	-9.760625	-3.482500
-5.673000	76.127998	1164.978027	-6.566875	-29.010626	9.034375
53.802002	91.256004	1208.654053	-7.074375	-33.197498	15.929375
81.739998	116.448997	1168.454956	-12.258750	-29.951250	25.217501
60.084999	75.334999	1238.239014	-16.988125	-28.183750	25.143126
96.563004	104.066002	1276.669067	-11.410000	-23.625000	21.805000
88.999001	135.419998	1194.745972	-5.053125	-22.465626	18.856251
125.721001	116.265999	1178.764038	2.095625	-13.090000	26.836250
123.585999	195.566010	1169.308960	-0.266875	-10.688125	27.947500
81.923004	129.807999	1128.682983	12.709375	-12.184375	28.118126
120.353004	187.147995	1214.448975	13.794375	-28.035000	29.295000
200.873001	118.523003	1201.700073	20.081249	-28.586250	21.686874
150.548004	128.283005	1280.878052	28.988750	-30.305626	15.242500
213.988007	154.085999	1215.119995	31.985624	-23.301250	4.650625
123.525002	153.841995	1224.331055	24.871876	-13.142500	3.710000
-224.479996	-128.649002	1106.357056	0.048125	-5.993750	2.870000
-220.637009	-113.826004	1118.251953	-1.474375	-5.840625	-0.800625
-177.143997	-120.109001	1099.219971	-3.985625	-5.280625	-1.824375
-183.548996	-115.473000	1087.447021	-3.154375	-6.199375	-2.983750
-191.479004	-121.329002	1070.062012	-2.213750	-3.307500	-1.474375
-178.363998	-163.175003	1036.390015	-0.122500	-4.055625	0.888125
-187.453003	-220.759003	979.843018	0.008750	-2.283750	-0.350000
-171.654007	-289.322998	904.507996	-6.409375	-3.858750	0.196875
-125.538002	-344.710999	830.027039	-6.461875	-14.306250	3.097500
-144.813995	-320.554993	835.395020	2.187500	-21.993126	-1.216250
-117.486000	-293.532013	772.626038	3.679375	-21.455000	3.941875
-91.134003	-255.285004	857.598999	11.178125	-16.410625	18.768749
-117.791000	-250.283005	925.796997	13.422500	-16.695000	18.873751
-163.113998	-128.222000	990.395996	17.250626	-33.656876	18.711876
-44.529999	-136.578995	1077.869995	10.933125	-55.470627	18.641874
40.687000	-102.053001	1154.119995	19.355000	-54.254375	21.726250
33.977001	-50.202999	1124.962036	10.661875	-39.882500	19.276251
130.600998	-91.195000	1144.786987	12.075000	-27.540625	35.918751
29.585001	-39.955002	1114.836060	4.620000	-4.563125	31.460625
63.500999	-98.759003	1127.157959	-4.121250	2.677500	23.288124
39.101002	-56.730000	1132.831055	3.500000	-8.977500	26.748751
52.094002	-109.861000	1094.889038	6.785625	-13.711250	23.397499
40.687000	41.968002	1171.200073	12.381250	-25.274376	25.860624
77.530998	-18.666000	1141.553955	0.813750	-35.328125	27.628124
161.223007	11.102000	1204.018066	8.238125	-31.023125	29.837500
141.154007	41.114002	1191.879028	17.263750	-21.735001	20.715626
114.741005	44.957001	1203.774048	24.784374	-14.341250	18.081875
122.549004	130.966995	1235.615967	32.418751	-0.700000	27.505625
87.473999	101.260002	1117.825073	38.211250	23.620625	37.301250
42.700001	159.332001	1140.151001	38.784374	24.981251	23.620625
56.242001	222.650009	1245.010010	24.403749	9.003750	21.468124
64.721001	188.490005	1175.896973	13.803125	-7.074375	25.628750
119.255005	192.699005	1169.919067	14.984375	-18.558750	27.461876
126.819000	135.481003	1072.501953	15.176875	-25.449375	22.391251
125.781998	116.388000	1095.499023	21.188126	-38.368752	15.163750
209.535004	172.934998	1095.072021	31.937500	-30.283751	9.161250
187.941010	189.466003	1066.341064	42.708752	-14.135625	5.858125
236.192001	321.774994	1267.579956	49.875000	-0.538125	8.146250
-226.981003	38.796001	1086.348999	-0.175000	-5.630625	-2.808750
-226.981003	38.796001	1086.348999	0.735000	-7.555625	1.010625
-209.229996	15.433001	1059.997070	0.634375	-3.443125	3.250625
-226.554001	9.638000	1040.660034	-1.855000	-0.494375	4.838750
-200.324005	-3.538000	1004.426025	-4.186875	-2.913750	6.146875
-244.244003	35.319000	1027.422974	-4.038125	-5.460000	5.731250
-175.497009	-5.795000	1012.356018	-3.250625	-11.816875	6.435625
-180.925995	11.102000	1025.044067	0.170625	-13.076875	6.855625
-142.069000	-23.180000	997.533020	-1.448125	-11.943750	7.083125
-123.280998	-29.097000	969.595032	1.426250	-10.246250	11.466875
-167.078995	62.464001	993.018982	-1.325625	-9.498125	10.885000
-134.444000	-44.285999	987.285034	-10.591875	-15.916250	20.221251
-170.617004	54.107002	1067.438965	-6.593125	-20.523125	18.567499
-119.621002	-43.066002	1013.637024	-9.152500	-15.470000	11.401250
-124.440002	55.570999	1062.558960	-5.875625	-14.555625	11.628750
-85.583000	37.820000	1011.867981	-8.754375	-11.956875	5.823125
27.511000	-73.444000	955.687012	-7.765625	-3.333750	14.905625
-191.417999	96.014000	1052.432983	-1.277500	-9.275000	19.263124
-54.900002	-163.175003	1004.182007	-6.606250	-22.531250	17.771250
-39.528000	-58.804001	1057.922974	8.006250	-24.701250	10.517500
-33.611000	1.586000	1080.859009	8.216250	-4.401250	3.548125
-17.080000	13.786000	1073.539062	6.553750	0.131250	3.692500
-64.171997	135.175995	1077.687012	17.237499	-2.813125	4.501875
-3.172000	89.426003	1118.435059	5.757500	-9.380000	3.276875
31.659000	137.860001	1132.281982	7.931875	-17.180626	16.983749
-10.187000	76.372002	1116.910034	-3.998750	-25.738125	25.716249
53.313999	55.998001	1119.776978	-5.166875	-33.840626	25.055626
70.760002	137.798996	1120.326050	-3.018750	-44.756248	29.264376
76.555000	60.512001	1177.787964	-2.038750	-44.314377	30.296875
181.169998	108.580002	1194.624023	15.636250	-30.533125	34.155624
42.821999	190.625000	1312.049072	2.152500	-35.840000	46.204376
371.550995	41.663002	1372.255981	12.425000	-30.126249	35.341251
117.791000	199.104004	1318.636963	24.053749	-17.473749	25.410000
74.114998	170.068008	1221.098022	8.168125	-17.381874	21.984375
220.393005	180.925995	1245.192993	9.174375	-7.319375	13.168750
43.615002	257.175995	1218.474976	1.588125	-9.646875	5.880000
159.149002	193.492004	1092.754028	-0.240625	-3.850000	11.746875
179.156998	213.317001	1157.718994	3.705625	7.721875	11.545625
-210.694000	-105.774002	1144.299072	-9.165625	-5.293750	2.301250
-171.959000	-120.414001	1134.905029	-6.912500	-5.735625	3.421250
-223.931000	-131.943008	1114.469971	-0.560000	-4.974375	0.914375
-191.296005	-116.265999	1116.300049	1.124375	-5.490625	0.713125
-201.604996	-125.965004	1098.609985	0.043750	0.393750	0.520625
-176.350998	-160.186005	1059.143066	-0.148750	-0.056875	-3.552500
-156.709000	-224.236008	994.421997	1.741250	4.125625	-3.867500
-181.719009	-235.277008	921.648987	1.741250	9.900625	-2.813125
-181.535995	-299.022003	841.921997	5.311250	4.515000	0.385000
-188.550995	-242.352997	844.666992	5.928125	-0.918750	4.965625
-162.748001	-315.065002	788.546997	7.634375	-0.004375	7.910000
-273.890015	-167.322998	871.872986	4.151875	-8.001875	7.883750
-132.979996	-269.192993	817.338989	-4.996250	-13.190625	9.730000
-294.080994	-146.888000	933.848999	1.771875	-6.518750	15.281875
-169.335999	-205.630997	913.169983	-8.916250	-28.866249	15.421875
-225.761002	-126.026001	1046.454956	-7.153125	-51.830624	23.550625
-143.044998	-137.921005	1049.749023	-8.627500	-70.315002	13.702500
-14.701000	-238.693008	1050.176025	-8.627500	-70.315002	17.491249
-14.701000	-238.693008	1076.650024	4.130000	-70.266876	17.491249
20.923000	-130.540009	1076.650024	38.521873	-27.409374	14.284375
50.507999	-74.724998	1175.409058	42.857498	7.700000	6.024375
39.589001	-11.956000	1193.831055	51.458752	15.618750	19.958750
-52.582001	38.491001	1107.333008	45.373123	13.606250	22.054375
-66.489998	101.870003	1203.224976	10.950625	-15.229375	31.946251
40.382000	70.515999	1126.182007	3.819375	-39.519375	40.403126
125.233002	43.980999	1057.557007	-1.605625	-43.636250	48.129375
91.865997	45.262001	1125.876953	3.115000	-38.495625	49.835625
106.872002	116.815002	1170.589966	2.961875	-35.800625	44.834999
89.059998	95.831001	1171.200073	-1.273125	-28.577499	41.050625
88.938004	144.753006	1230.004028	3.425625	-33.193127	43.916248
151.524002	100.284004	1203.468994	-5.149375	-34.667500	35.503124
203.679001	65.148003	1224.575073	8.526875	-27.706875	23.590000
205.326004	179.401001	1302.228027	13.085625	-38.119373	17.863125
203.007996	161.528000	1235.982056	7.813750	-18.200001	16.086876
139.201996	212.829010	1287.039062	4.130000	-18.129999	16.839375
179.401001	174.399002	1249.951050	0.686875	-12.013750	11.563125
159.942001	163.541000	1273.863037	4.265625	-4.589375	12.075000
171.287994	193.613998	1264.468994	6.466250	-14.805000	9.524375
182.268005	156.709000	1237.385010	8.308125	-2.555000	7.848750
138.408997	179.522995	1185.596069	13.457500	-4.025000	3.766875
172.569000	155.977005	1173.334961	13.615000	0.463750	3.797500
157.867996	130.723007	1142.041992	10.994375	10.605000	0.905625
124.074005	117.363998	1095.072021	7.630000	0.446250	-2.848125
188.246002	103.456001	1139.235962	4.357500	-3.784375	-3.001250
185.440002	98.332001	1103.734009	1.207500	1.334375	-2.611875
185.195999	88.145004	1092.692993	-3.163125	1.338750	-1.986250
181.414001	85.034004	1100.379028	-2.598750	2.568125	-2.664375
173.179001	66.368004	1083.725952	-1.820000	-2.896250	-3.705625
197.457001	65.879997	1107.942993	1.028125	-4.431875	-5.608750
183.122009	77.714005	1103.245972	3.421250	-1.526875	-7.074375
189.160995	76.982002	1112.457031	2.200625	-2.170000	-6.676250
199.591995	78.812004	1127.890015	1.780625	-1.400000	-8.557500
186.964996	104.676003	1123.985962	3.710000	1.351875	-8.211875
190.625000	107.237999	1138.992065	1.833125	-0.984375	-4.952500
