A_X[mg]	A_Y[mg]	A_Z[mg]	G_X[dps]	G_Y[dps]	G_Z[dps]	
141.581009	21.228001	1118.312988	-1.421875	-2.734375	0.472500
151.951004	10.065001	1121.973022	0.188125	-1.316875	0.568750
149.938004	14.457000	1112.091064	1.176875	-1.986250	-0.581875
136.029999	22.875000	1123.619995	3.701250	-4.970000	-0.345625
161.345001	32.025002	1118.739990	3.797500	-6.422500	-1.225000
180.376999	12.322001	1109.162964	0.844375	-0.271250	1.548750
148.839996	-27.632999	1067.561035	3.482500	3.836875	-0.573125
170.861008	-70.210999	1017.846008	0.796250	1.911875	-2.471875
149.266998	-77.653000	968.314026	-2.143750	6.698125	-0.739375
188.307007	-146.339005	983.686035	1.981875	1.312500	1.894375
162.443008	-91.927002	976.793030	7.266875	-6.461875	4.501875
170.617004	-89.426003	993.812012	10.815000	-7.039375	14.293125
168.848007	-107.848000	999.119019	16.226875	-5.101250	14.730625
148.596008	-36.050999	1013.575989	11.322500	-3.727500	12.525625
156.831009	-38.917999	1003.023010	2.340625	-14.923125	16.629375
151.524002	40.504002	1052.555054	-5.586875	-8.290625	12.293750
223.443008	-27.877001	1066.768066	-1.246875	3.670625	18.309376
69.662003	99.735001	1057.557007	9.817500	-3.653125	16.463125
238.143997	45.445000	1114.165039	17.683750	-17.045000	25.305000
303.963013	16.896999	1074.636963	42.349998	-0.844375	28.109375
165.919998	147.559006	1120.203979	41.107498	-5.175625	32.830002
294.080994	159.697998	1136.063965	29.286249	-23.804375	36.553123
237.839005	190.320007	1075.186035	25.073126	-23.410625	32.261250
320.677002	189.222000	1136.063965	17.600624	-21.109375	33.643749
343.490997	273.829010	1101.781982	12.783750	-12.101250	37.266251
234.606003	196.419998	1073.905029	7.616875	-2.673125	37.730000
272.731018	220.759003	1117.885986	1.124375	-11.011875	29.933750
382.470001	188.612000	1113.494019	4.585000	-7.735000	30.248751
290.604004	164.029007	1092.388062	4.471250	-3.793125	19.420626
343.125000	259.372009	1143.688965	-0.901250	2.213750	10.071250
295.850006	275.720001	1177.604980	1.334375	8.570625	10.438750
217.891998	265.045013	1141.614990	1.334375	8.570625	13.566875
217.891998	274.927002	1108.125977	6.733125	-5.621875	13.566875
290.970001	274.927002	1108.125977	3.084375	-16.253124	13.860000
303.779999	234.301010	1090.680054	9.926875	-3.543750	7.984375
289.384003	309.880005	1206.763062	14.420000	3.241875	8.312500
286.578003	285.907013	1174.859985	15.378125	-2.069375	17.500000
269.253998	242.231003	1166.136963	8.601250	-14.490000	22.474375
73.504997	-53.558002	1077.869995	0.017500	3.679375	4.309375
69.905998	-30.683001	1086.837036	-1.780625	-3.473750	3.955000
97.966003	-75.884003	1091.229004	-0.966875	-3.233125	0.656250
89.609001	-82.899002	1096.474976	2.436875	-0.835625	-1.553125
122.366005	-106.079002	1080.066040	7.249375	-3.276875	-2.568125
68.869003	-32.818001	1075.063965	12.608750	-4.830000	-1.382500
105.591003	-85.827003	1077.504028	9.095625	-6.365625	4.978750
186.721008	-216.488998	1019.005005	7.227500	-2.043125	7.800625
82.899002	-133.041000	985.638000	11.939375	-1.207500	2.476250
39.101002	-31.659000	966.239990	1.124375	-5.035625	1.089375
143.350006	-143.593994	990.213013	-9.546250	-15.023750	13.356875
188.734009	-237.533997	969.778015	-7.485625	-22.933750	21.328125
165.859009	-188.977997	927.749023	3.841250	-14.630000	17.867500
201.238998	-235.582001	878.765991	16.139376	-13.825000	19.656876
207.826996	-243.817001	785.557983	26.315624	-9.038750	18.020624
255.468002	-161.955002	848.632019	33.385624	3.508750	15.999375
183.182999	-55.998001	823.804993	30.799999	-5.486250	27.470625
248.209000	-96.319000	758.473999	31.683750	-11.690000	29.496250
278.282013	19.093000	827.587036	23.340626	-25.283125	43.876877
263.764008	103.883003	819.169006	10.578750	-44.585625	48.715626
399.794006	298.351013	1027.666992	11.458125	-56.384998	54.223751
507.398010	240.889008	1551.108032	45.158749	-59.972500	70.761253
500.505005	386.069000	1502.552002	60.475624	-74.033752	44.152500
579.744019	750.117004	1789.312988	36.491875	-97.133751	36.054375
910.791016	660.690979	1427.338989	19.923750	-53.510624	45.215626
508.984009	456.158020	1387.932983	30.187500	3.797500	9.813125
263.276001	508.434998	1164.185059	38.215626	7.498750	-9.638125
307.074005	441.761993	1058.349976	17.416876	9.196250	0.896875
338.428009	321.287018	1012.843994	-2.996875	14.345625	6.260625
382.470001	265.654999	1043.832031	-13.833750	5.731250	3.031875
452.071014	213.561005	1052.799072	-12.635000	-2.765000	-2.314375
444.994995	167.994003	1009.611023	-11.978750	-2.800000	-7.341250
471.164001	143.533005	1040.781982	-8.876875	1.645000	-8.684375
442.920990	148.779007	1016.565002	-2.283750	2.861250	-5.481875
442.738007	154.634995	1004.487000	-2.165625	-0.297500	-3.823750
459.451996	186.538010	1030.656006	-4.340000	-2.170000	-3.836875
439.321991	152.988007	1000.643982	-8.535625	-0.748125	-7.765625
415.593018	127.673004	1015.161987	-11.580625	-2.261875	-11.873750
107.970001	106.384003	1180.472046	-5.954375	0.975625	-1.478750
125.965004	82.899002	1159.427002	-4.952500	3.867500	-0.888125
133.651001	86.193001	1131.854980	-2.686250	9.782500	-0.774375
103.456001	76.799004	1120.875000	-0.980000	11.637500	0.310625
117.973999	78.812004	1103.001953	-0.380625	6.698125	1.763125
83.326004	74.664001	1085.800049	-0.840000	7.385000	2.480625
113.947998	37.881001	1107.211060	0.638750	6.877500	0.835625
90.829002	54.534000	1098.915039	0.735000	5.311250	2.362500
75.884003	37.820000	1063.962036	-2.458750	3.141250	3.036250
90.889999	-3.355000	1061.888062	-4.987500	2.861250	4.659375
83.264999	4.575000	1030.167969	-4.637500	2.983750	5.783750
113.459999	-47.214001	991.921021	-2.406250	6.816250	7.848750
65.879997	-8.723001	986.309021	6.405000	5.162500	6.090000
136.701004	-83.814003	936.593994	16.012501	-0.056875	6.063750
203.557007	-161.283997	869.859985	17.360001	2.896250	13.623750
180.499008	-232.348999	818.497986	28.516251	5.083750	17.001249
57.340000	-140.544006	755.424011	33.381248	-3.211250	10.346875
146.156006	-59.475002	836.737000	14.638750	-25.624374	33.691875
133.285004	-52.399002	768.783020	5.678750	-44.161251	49.008751
204.654999	64.965004	791.475037	5.801250	-41.601875	40.823124
340.623993	254.796997	1073.661011	-3.928750	-38.246250	60.270000
336.476013	284.626007	1033.035034	0.249375	-30.283751	47.608749
323.300018	350.079010	1292.468018	9.970625	-29.434999	51.874374
336.231995	360.753998	1249.828979	19.245625	-43.386875	43.133125
380.518005	378.321991	1382.687012	24.184999	-55.505627	32.751251
455.548004	462.319000	1425.692017	16.791250	-58.970627	24.941875
474.519012	438.773010	1542.629028	18.720625	-38.849998	26.429375
421.205017	469.944000	1465.829956	10.233125	-24.596251	23.183125
373.929993	319.334991	1273.009033	9.611875	-11.475625	20.326250
348.981018	365.145996	1201.639038	9.406250	-8.404375	8.120000
323.971008	310.916992	1109.102051	1.010625	-6.601875	6.671875
374.479004	235.582001	1085.006958	-3.206875	0.577500	10.141250
393.755005	212.097000	1057.557007	-0.472500	5.665625	10.784375
415.471008	179.584000	1038.586060	1.426250	5.201875	9.082500
446.641998	168.177002	1033.828003	6.107500	4.046875	3.788750
415.410004	165.798004	1002.840027	6.671875	3.018750	-0.026250
394.364990	157.563004	1020.713013	6.006875	1.579375	-0.315000
419.131012	166.957001	1043.526978	7.503125	0.428750	0.503125
211.975006	184.464005	1080.005005	-1.666875	1.102500	-0.888125
187.453003	185.440002	1099.769043	-3.898125	-0.026250	-1.509375
188.246002	180.072006	1111.053955	-3.683750	-2.826250	-5.328750
179.156998	158.173004	1107.760010	-5.858125	-0.459375	-3.399375
208.863998	166.347000	1131.244995	-6.212500	-1.518125	-0.595000
236.070007	110.348999	1135.759033	-6.356875	1.561875	-2.095625
235.216003	19.703001	1142.713013	-4.427500	6.610625	-1.697500
292.800018	-61.122002	1085.983032	4.764375	14.704375	-4.567500
274.988007	-166.591003	918.354980	12.324375	26.276251	0.743750
203.800995	-196.298004	868.030029	6.978125	30.992500	1.443750
185.806000	-151.402008	770.307983	-0.800625	22.063126	11.554375
147.559006	-93.695999	792.085022	-8.233750	0.643125	25.178125
95.465004	-87.656998	829.173035	-27.702499	-11.668125	18.353125
198.311005	-99.612999	868.700989	-43.666874	-27.370001	21.402500
191.966995	-58.499001	841.739014	-18.860624	-40.608749	23.397499
239.242004	24.705000	981.367981	2.791250	-47.254375	26.280624
350.811005	106.811005	1012.112000	22.509375	-49.253750	23.454374
189.770996	316.162994	1012.478027	6.838125	-70.975624	25.795000
574.254028	338.244995	1308.693970	14.450625	-70.713127	29.395624
399.550018	350.018005	1089.947998	27.899376	-52.889374	30.528749
441.274017	360.205017	1083.786987	26.250000	-39.628750	30.183125
552.233032	337.635010	1217.376953	18.567499	-24.154375	22.426250
535.580017	404.613007	1387.261963	11.230625	-39.716251	8.290625
610.244019	421.510010	1335.656006	4.668125	-36.583752	15.636250
472.140015	242.841003	1221.281006	-4.558750	0.008750	14.993125
474.092010	259.738007	1228.844971	6.619375	21.726250	13.750625
414.190002	278.953003	1141.370972	22.343124	14.170625	25.186874
452.925018	148.046997	1078.358032	37.301250	6.798750	32.799374
464.697998	203.191010	1096.170044	37.756248	-3.517500	24.403749
474.274994	168.115997	1068.902954	27.803125	-2.502500	19.936874
473.726013	148.718002	1043.282959	20.776875	6.103125	9.935625
479.033020	196.664001	1012.234009	19.814375	13.483750	-0.166250
419.619019	208.986008	1044.807983	12.451250	20.405001	-6.440000
416.873993	202.337006	1032.791016	8.990625	16.244375	-13.413750
399.916016	261.201996	1008.757019	4.690000	7.087500	-11.418750
442.372009	224.541000	1005.036011	4.690000	-1.452500	-3.635625
424.925995	218.867996	973.682007	1.614375	-1.452500	-3.635625
424.925995	218.867996	1014.369019	2.091250	-1.855000	-1.137500
86.132004	68.014999	1098.609985	2.476250	4.655000	0.485625
109.617004	36.600002	1093.364014	2.366875	3.110625	0.525000
96.014000	74.237000	1105.807983	1.207500	0.323750	-0.126875
115.107002	19.825001	1101.660034	-4.738125	0.148750	2.721250
139.873001	-69.600998	1106.723022	-2.856875	2.117500	0.805000
122.487999	-126.696999	1045.906006	6.488125	11.580625	-9.747500
131.089005	-218.624008	881.145020	8.925000	21.004375	-5.613125
206.302002	-312.442017	919.330994	5.980625	18.046875	3.215625
142.374008	-265.593994	789.523010	1.960000	13.580000	0.936250
151.462997	-218.990005	719.007019	-2.065000	4.585000	9.791250
133.956009	-162.382004	697.291016	19.092501	-6.024375	14.144375
171.959000	4.270000	835.822021	28.936251	-11.151875	23.673124
198.128006	21.228001	834.968018	34.488125	-23.603125	38.215626
142.800995	201.361008	843.812988	30.078125	-46.751251	44.288124
129.320007	343.247009	879.681030	6.212500	-60.046875	53.261250
373.442017	306.281006	1363.289062	13.405000	-49.586250	49.139999
401.868011	382.713989	1378.722046	31.408125	-47.153751	62.164375
407.785004	519.598022	1429.291016	16.716875	-57.750000	85.220627
584.319031	312.929993	1391.837036	21.787500	-26.617500	67.370628
277.489014	547.780029	1396.594971	40.123123	-34.881874	53.108124
381.127991	567.971008	1220.427002	36.684376	-38.893749	41.330624
383.873016	462.319000	1218.657959	30.331875	-29.286249	34.794376
444.201996	469.395020	1213.777954	24.237499	-20.930000	23.576876
384.421997	398.635010	1106.417969	13.186250	-5.643750	9.668750
436.333008	395.279999	1172.603027	-3.867500	-0.647500	2.406250
389.302002	337.269012	1060.424072	-9.051875	-1.907500	-10.696875
364.352997	311.404999	1026.995972	-13.076875	-7.459375	-13.978125
412.604004	261.080017	1035.718994	-17.902500	-6.273750	-14.166250
401.929016	217.587006	992.286987	-4.436250	-2.397500	-7.752500
567.666016	209.656998	1058.655029	10.080000	5.788125	-2.738750
373.747009	204.594009	956.419006	11.291875	11.515000	-3.797500
416.873993	245.891006	999.302002	-11.296250	21.682501	7.393750
459.208008	130.723007	1046.027954	-28.209999	24.552500	5.241250
378.932007	143.227997	1034.743042	-18.370625	3.333750	-12.740000
383.019012	119.621002	1019.919983	-6.203750	-12.538750	-21.245001
386.800995	170.617004	1072.685059	3.066875	-8.010625	-17.364374
365.329010	185.074005	1085.800049	5.451250	-2.922500	-9.537500
368.501007	166.529999	1086.654053	4.838750	2.800000	-2.620625
371.429016	154.025009	1080.370972	4.773125	5.713750	1.688750
119.621002	7.991000	1135.942017	-1.001875	-0.490000	-2.559375
83.447998	10.797000	1117.520020	-3.272500	0.446250	-2.178750
124.135002	-10.065001	1118.251953	-3.014375	-2.371250	-2.887500
85.827003	10.675000	1109.285034	-3.806250	1.098125	-1.955625
104.005005	-16.896999	1138.504028	-2.896250	-4.051250	-0.490000
154.634995	-92.842003	1127.097046	-0.551250	-2.537500	-3.171875
185.806000	-169.945999	1069.513062	6.969375	9.502500	-11.943750
173.179001	-294.752014	950.929016	8.684375	11.847500	-8.526875
166.712997	-324.398010	870.835999	9.165625	4.746875	0.787500
56.119999	-245.708008	779.458008	8.964375	-2.047500	-1.496250
178.608002	-333.609009	660.934998	0.870625	-10.346875	5.053125
204.289001	-218.197006	733.463989	7.910000	-6.238750	19.726875
70.210999	-135.115005	773.052979	7.927500	-0.389375	10.128125
190.197998	-76.737999	782.447021	15.146250	2.060625	8.360625
154.818008	1.342000	927.871033	27.168751	-15.137500	24.508751
233.507996	92.110001	947.513000	34.825001	-26.744375	27.733126
259.188995	241.011002	1006.134033	38.779999	-36.522499	48.562500
299.205017	295.179016	1207.800049	36.185623	-31.863125	52.578751
408.089996	379.237000	1250.622070	48.269375	-26.621876	59.915627
167.567001	682.528992	1496.329956	39.204376	-60.759998	62.921249
509.227997	435.174011	1441.247070	34.400623	-66.893753	38.919998
361.303009	702.414978	1409.953979	28.765625	-64.736877	24.430000
422.485992	610.000000	1371.341064	3.823750	-55.264999	34.090000
386.069000	414.251007	1214.998047	-4.637500	-16.196251	22.391251
315.308990	319.640015	1188.707031	-2.559375	-13.291250	20.615000
388.936005	272.914001	1198.344971	7.210000	-16.730000	21.476875
420.533997	242.535995	1115.263062	13.921250	-13.825000	17.460625
403.697998	245.281006	1086.166016	11.462500	-8.071875	11.777500
425.963013	199.225998	1075.857056	2.598750	-1.465625	-1.435000
435.783997	180.194000	1017.296997	-2.135000	-3.473750	-10.263750
435.540009	165.919998	997.716003	-3.263750	0.450625	-11.589375
441.213013	154.878998	1000.705017	0.826875	-5.026875	-12.626250
462.441010	203.800995	1020.225037	6.501250	-3.661875	-7.630000
460.062012	208.315002	1011.441040	8.841875	1.198750	-2.620625
426.390015	210.206009	1040.781982	5.796875	1.741250	-2.174375
439.809998	205.813995	1042.124023	5.123125	5.915000	0.551250
427.000000	180.499008	1027.972046	1.085000	3.521875	-0.962500
416.203003	190.259003	1026.264038	-0.818125	-0.568750	-4.217500
235.764999	63.623001	1093.669067	3.801875	1.159375	-1.141875
227.225006	32.939999	1100.135010	3.705625	3.272500	-0.533750
246.501007	11.651000	1067.134033	-1.789375	5.276250	0.551250
193.919006	-21.350000	1039.013062	-1.159375	6.251875	2.030000
240.828003	-79.238998	1006.622009	7.971250	4.935000	-1.610000
268.399994	-156.526001	899.627991	10.631250	3.915625	-0.787500
322.994995	-251.320007	827.830994	14.940625	7.590625	5.320000
204.167007	-203.862000	703.817993	25.541250	11.554375	1.518125
197.335007	-113.459999	616.526978	24.031876	7.581875	3.780000
270.230011	-158.722000	686.311035	14.411250	-3.228750	29.548750
121.695000	-86.925003	691.069031	12.910625	-25.655001	28.866249
289.506012	88.511002	864.796997	16.104376	-47.840626	17.495625
326.777008	226.309998	1009.976990	12.665625	-52.535000	28.713125
379.725006	259.006012	1071.037964	6.527500	-36.325626	24.863125
551.195984	147.742004	1473.515991	23.699375	-43.706249	41.501251
452.681000	332.816010	1307.779053	39.270000	-43.483124	35.595001
526.186035	380.274017	1151.557983	34.251877	-34.107498	35.791874
501.237000	674.903992	1383.723999	24.005625	-65.021248	62.020000
520.147034	555.039001	1186.023071	7.468125	-48.829376	68.079376
576.510986	366.854004	1237.263062	0.905625	-24.132500	42.398125
543.388000	322.506989	1319.369019	1.544375	-12.866875	23.546249
499.651001	289.627991	1180.105957	13.715625	-8.684375	3.298750
473.665009	277.001007	1114.225952	17.876249	-16.244375	3.220000
522.403992	244.365997	1052.372070	23.515625	-11.475625	8.141875
527.588989	221.979004	1022.970032	24.193750	-10.561250	7.297500
599.507996	267.667999	1032.425049	16.301250	-5.083750	3.377500
526.491028	229.908997	979.233032	9.161250	8.452500	1.295000
544.913025	217.221008	961.604004	5.442500	3.141250	0.253750
542.289978	207.095001	950.441040	7.052500	4.921875	0.892500
487.572998	197.701004	952.454041	7.030625	-1.378125	-1.693125
553.697021	225.089996	996.617981	6.636875	-6.855625	-0.608125
531.737000	196.542007	978.440002	0.923125	1.658125	-3.106250
527.893982	177.753998	985.820984	-2.240000	0.087500	-4.182500
551.867004	200.507004	956.723999	0.892500	3.224375	-2.056250
518.987976	182.878006	933.971008	0.748125	4.974375	-0.669375
527.466980	192.882004	952.270996	0.748125	-1.850625	0.879375
553.148010	199.165009	962.518982	4.335625	-1.850625	0.879375
553.148010	207.583008	975.145996	6.715625	0.402500	0.363125
217.098999	89.792000	1106.600952	-4.073125	1.260000	4.366250
222.955002	80.825005	1100.867065	-5.438125	0.481250	3.049375
209.108002	73.626999	1076.344971	-5.438125	0.481250	-0.949375
209.108002	50.081001	1095.133057	-5.643750	6.790000	-0.949375
224.602005	50.081001	1095.133057	-1.325625	5.495000	-0.962500
207.278000	46.848000	1064.693970	-0.656250	2.856875	-0.441875
264.312988	-40.199001	1073.539062	3.946250	3.478125	-3.294375
286.394989	-136.639999	1001.070984	10.679375	8.531250	-9.489375
186.233002	-192.943008	888.892029	2.913750	19.053125	-10.622500
170.800003	-252.723007	783.423035	-8.413125	20.396250	-3.661875
143.533005	-247.843002	768.721985	-7.910000	12.201875	11.808125
268.278015	-226.615005	754.447998	-8.308125	4.322500	17.653126
258.579010	-206.485001	813.007996	-13.803125	-3.167500	31.950624
261.628998	-152.561005	851.864990	-10.688125	-21.918751	39.077499
244.000000	-62.830002	847.411987	5.998125	-42.857498	40.770626
237.473007	1.891000	944.829041	28.805000	-44.134998	36.513748
314.149994	103.028999	1028.520996	42.441875	-35.419998	30.966249
280.843994	255.468002	1032.058960	61.096874	-27.864374	24.259375
369.903992	399.123016	1170.102051	69.833748	-23.419374	29.150625
330.681000	482.326996	1157.170044	63.122501	-13.982500	34.369999
375.272003	629.337036	1336.571045	18.886875	-45.521873	37.646873
459.024994	429.317993	1244.156006	-1.347500	-50.408749	36.522499
491.782013	398.208008	1371.951050	5.779375	-53.996250	37.016876
437.675018	379.664001	1309.426025	2.016875	-31.570000	27.361250
489.403015	351.908997	1270.812988	-0.258125	-18.099375	28.450624
489.585999	219.904999	1264.834961	-3.784375	-8.111250	28.542500
447.434998	172.020004	1207.006958	11.322500	-2.139375	18.676874
449.204010	292.921997	1172.420044	22.889999	-14.393750	15.054375
442.920990	274.377991	1088.545044	21.437500	-1.386875	13.715625
479.277008	196.664001	1096.963013	15.946875	5.560625	12.228125
401.136017	247.598999	1051.640015	6.273750	10.723125	1.080625
473.299011	171.410004	1023.153015	3.653125	10.548125	2.913750
452.192993	129.380997	981.551025	5.315625	-7.551250	2.821875
467.626007	205.447998	990.213013	9.288125	-10.648750	-2.633750
520.879028	153.658997	999.729004	9.646875	-9.196250	0.166250
460.671997	196.664001	977.403015	13.133750	-20.680626	-0.341250
517.523987	237.595001	977.952026	16.275000	-2.511250	5.665625
487.268005	151.585007	1003.816040	3.535000	6.037500	4.528125
173.910995	81.069000	1125.206055	-5.127500	-3.508750	-0.800625
143.837997	68.869003	1120.692017	-2.060625	-0.275625	-1.548750
166.591003	84.667999	1111.603027	0.586250	-0.743750	-1.474375
149.938004	74.847000	1127.036011	1.837500	-2.782500	-2.165625
161.650009	91.012001	1104.893066	0.765625	0.205625	0.179375
129.320007	83.142998	1115.812012	0.385000	-0.520625	-0.796250
165.371002	79.666000	1094.279053	-3.731875	-0.463750	-0.984375
174.764999	-41.053001	1078.846069	-7.157500	2.419375	-4.103750
175.680008	-106.506004	1001.864014	-2.782500	4.033750	-12.127500
182.207001	-193.675003	899.811035	3.040625	4.497500	-10.784375
153.231995	-247.721008	791.658020	8.509375	8.960000	-2.773750
117.730003	-248.148010	739.929993	6.138125	5.490625	1.811250
83.447998	-185.928009	732.427002	-11.147500	-16.555000	14.958125
108.519005	-148.169006	728.096008	-17.819374	-34.676250	16.791250
188.917007	-116.753998	901.397034	-31.482500	-39.987499	19.915001
214.048996	-61.427002	909.937012	-6.405000	-37.441250	19.289375
317.382996	6.649000	980.330994	14.713125	-34.658749	3.976875
273.584991	157.136002	1101.050049	38.513126	-34.278126	1.855000
336.231995	328.058014	1191.696045	33.569374	-5.481875	-2.401875
413.214020	282.674011	1151.130981	21.196875	15.995000	9.375625
332.084015	245.037003	1374.879028	-4.086250	3.360000	27.387501
301.584015	285.175018	1110.566040	-13.689375	7.748125	20.212500
348.432007	32.574001	1342.609985	12.858125	-0.813750	25.519375
286.334015	381.188995	1440.636963	25.449375	-14.695625	17.053749
414.860992	234.057007	1317.599976	31.762501	6.781250	27.212500
345.565002	366.183014	1358.286987	39.396873	-34.107498	47.394375
428.403015	319.884003	1269.593018	33.516876	-41.846874	62.829376
266.631012	223.748001	1197.125000	24.198126	-25.655001	60.458126
330.619995	195.992996	1086.410034	24.858749	-12.254375	34.195000
326.959991	221.003006	1068.475952	27.562500	-3.587500	14.870625
327.447998	278.891998	1080.066040	24.508751	-16.095625	8.373750
418.216003	298.106995	1074.026978	10.298750	-23.021250	0.433125
412.054993	218.624008	1118.862061	-1.553125	-13.466250	-1.855000
411.506012	248.270004	1105.442017	2.016875	-11.641875	0.350000
398.024994	208.193008	1078.296997	0.218750	-6.886250	-1.863750
391.071014	198.067001	1076.040039	1.474375	-4.213125	-0.730625
397.903015	183.000000	1033.766968	2.362500	-3.889375	-0.398125
398.696014	181.535995	1054.506958	0.927500	-4.777500	-1.728125
7.686000	-50.935001	1101.781982	1.190000	1.435000	-3.106250
6.344000	-25.315001	1104.039062	-1.701875	0.630000	-2.095625
16.287001	-66.429001	1104.709961	-4.550000	1.146250	-1.303750
-17.812000	-55.388000	1104.832031	-4.370625	3.123750	-1.513750
13.298000	-69.417999	1084.702026	-2.568125	3.574375	-0.555625
-25.071001	-83.447998	1113.738037	-0.892500	2.598750	0.883750
4.636000	-148.839996	1098.854004	0.336875	1.474375	-2.524375
-8.113000	-227.774002	1038.708008	2.515625	8.360625	-6.396250
17.812000	-378.993011	941.229980	7.021875	12.241250	-8.653750
-39.466999	-357.886993	786.046021	5.823125	15.295000	-9.436875
4.392000	-418.826019	744.139038	-2.668750	15.548750	-4.742500
-98.149002	-312.075989	722.789001	-5.617500	2.161250	-7.603750
23.180000	-283.406006	728.767029	5.420625	-11.681250	-9.056250
31.659000	-186.598999	840.275024	32.589375	-12.963125	7.196875
-33.672001	-75.334999	947.574036	37.283749	-8.225000	3.858750
128.404999	-42.944000	1004.304016	42.288750	-13.899375	21.778749
80.031998	50.751999	1078.479980	46.055626	-25.353125	39.488750
153.720001	116.693001	1138.625977	41.094376	-27.225624	44.804375
165.675995	278.587006	1156.743042	35.848751	-20.264999	48.059376
175.619003	311.466003	1179.678955	34.593124	3.101875	38.316250
49.166000	373.929993	1345.781982	24.539375	13.111875	39.291874
-47.091999	473.542999	1254.770020	-0.096250	-6.899375	28.481251
12.688000	321.470001	1280.634033	-8.491875	-37.047501	33.608749
162.748001	427.365997	1273.863037	-3.950625	-66.377502	41.426876
270.596008	299.510010	1292.162964	-4.077500	-61.293751	41.321877
298.899994	308.843018	1425.509033	-8.579375	-52.036251	21.139999
253.150009	280.295013	1361.276001	-10.031875	-42.695625	8.036875
317.993011	209.901001	1344.806030	-2.878750	-25.388124	3.381875
233.569000	199.408997	1220.000000	4.685625	-6.938750	-1.382500
222.100998	166.895996	1170.833984	3.255000	1.400000	-1.211875
194.163010	157.929001	1111.541992	3.631250	3.622500	-0.061250
207.033997	129.563995	1096.536011	-0.420000	-1.631875	0.695625
220.697998	108.030998	1107.515991	-8.767500	1.133125	-4.777500
233.751999	84.607002	1119.716064	-14.008750	4.081875	-8.028125
233.264008	28.365000	1109.895020	-10.386250	7.284375	-7.730625
248.514008	55.510002	1111.297974	-6.409375	7.183750	-6.536250
229.360001	51.240002	1073.661011	-4.090625	7.437500	-2.953125
212.402008	20.618000	1078.296997	-2.568125	2.559375	-3.176250
230.885010	56.181000	1079.212036	0.433125	0.231875	-5.407500
236.253006	51.484001	1080.676025	0.214375	-2.528750	-4.550000
248.757996	60.084999	1097.024048	-0.931875	-3.290000	-5.713750
236.009003	66.429001	1091.350952	0.148750	-3.023125	-5.845000
230.031006	68.442001	1096.353027	-0.021875	-2.187500	-4.318125
222.589005	82.837997	1104.526978	0.901250	-3.071250	-3.171875
224.358002	80.031998	1106.417969	0.844375	-1.063125	-1.938125
227.835007	79.422005	1103.368042	1.115625	0.000000	-1.063125
225.699997	74.359001	1104.466064	0.310625	-1.168125	-1.124375
225.212006	65.453003	1099.586060	-0.266875	-0.245000	-2.008125
225.212006	65.270004	1103.672974	0.017500	-1.163750	-3.185000
229.787003	69.235001	1102.270020	0.323750	-0.770000	-3.539375
226.554001	64.660004	1105.259033	0.271250	-1.518125	-3.430000
229.115997	74.481003	1092.937012	1.500625	-0.678125	-3.088750
228.262009	78.507004	1104.466064	4.011875	1.137500	-3.998750
227.774002	95.648003	1098.792969	2.572500	-0.853125	-6.343750
