A_X[mg]	A_Y[mg]	A_Z[mg]	G_X[dps]	G_Y[dps]	G_Z[dps]	
375.455017	262.239014	1001.619995	0.739375	18.427500	-4.983125
386.007996	280.173004	958.614990	7.328125	15.610000	-1.373750
375.942993	281.575989	971.486023	6.426875	16.056250	-0.542500
343.552002	305.549011	941.229980	6.269375	7.555625	-0.634375
376.369995	292.190002	974.169983	-2.419375	2.660000	-4.676875
323.971008	336.720001	1137.467041	0.901250	2.835000	-4.738125
286.761017	448.777008	1464.854004	1.006250	-3.036250	5.700625
297.131012	515.388977	1894.537964	11.698750	3.753750	9.384375
213.561005	603.289978	1937.359985	2.830625	13.676250	12.963125
326.777008	575.291016	1910.703003	2.410625	23.734375	6.986875
407.296997	508.069000	1703.546997	-8.995000	45.053749	-3.001250
469.700012	470.981018	1517.557983	-26.420626	69.741875	-19.565001
512.033997	388.265015	1279.474976	-29.203125	82.985001	-33.678749
432.856018	349.957001	1070.000977	-30.922501	82.744377	-38.648750
254.186996	300.364014	914.877991	-27.129375	95.729378	-41.269375
258.579010	252.296005	775.798035	-16.826250	99.330002	-51.795624
67.527000	150.242996	710.406006	-6.129375	76.470627	-40.543125
163.662994	164.944000	612.806030	1.513750	32.025002	-22.596874
46.421001	164.944000	463.050995	11.186875	35.774376	-25.361876
-46.360001	126.209000	558.393982	2.988125	59.495625	-28.284374
-118.523003	106.750000	541.314026	-9.607500	73.141251	-20.658751
-289.627991	67.771004	621.041016	-11.099375	50.325626	-3.320625
-242.779999	115.534004	667.583984	-10.110625	15.719375	-0.083125
-334.768005	89.487000	792.755981	-18.300625	1.386875	1.513750
-287.675995	171.227005	850.096008	-15.745625	-5.337500	-5.398750
-271.084015	96.075005	913.169983	-16.870001	-3.272500	-3.486875
-304.511993	142.374008	987.223999	-26.718124	-1.863750	-2.765000
-280.295013	145.850998	1025.837036	-23.305626	-5.753125	-3.836875
-296.825989	111.630005	1054.323975	-20.378750	-8.675625	-0.813750
-256.748993	106.750000	1042.062988	-21.000000	-6.190625	-0.809375
-262.848999	59.535999	1027.118042	-19.923750	-4.462500	4.541250
-291.153015	84.729004	1061.704956	-16.957500	0.896875	8.837500
-278.160004	54.411999	1067.438965	-18.917500	3.110625	3.797500
-291.580017	52.216000	1077.992065	-14.809375	1.513750	3.696875
-292.433990	63.074001	1106.296021	-13.536250	-3.469375	3.784375
-253.699005	36.050999	1082.445068	-8.662500	2.161250	1.785000
-304.268005	49.532001	1071.708984	-4.830000	3.320625	1.316875
-240.156998	48.922001	1013.637024	-6.300000	6.995625	1.373750
223.138000	63.013000	1088.422974	5.735625	7.161875	0.630000
212.585007	57.522999	1093.425049	5.346250	5.893125	-0.297500
210.328003	71.613998	1097.695068	2.108750	3.101875	-0.901250
205.813995	61.549000	1079.212036	2.113125	1.522500	-1.255625
214.781006	61.122002	1089.826050	3.259375	0.682500	-1.316875
203.557007	74.176003	1094.279053	3.373125	2.305625	-0.192500
151.462997	33.367001	1368.962036	5.302500	-3.644375	3.946250
135.419998	90.524002	1540.250000	3.071250	-5.324375	6.680625
58.681999	-123.037003	1998.604004	-2.996875	-1.645000	10.473750
70.150002	16.714001	1970.117065	18.589375	-16.467501	19.661249
214.781006	73.383003	1658.223999	20.610624	-27.593124	14.118125
312.259003	204.533005	1584.230957	23.021250	6.615000	1.544375
280.234009	182.817001	1222.683960	3.753750	43.198750	-8.846250
321.592010	132.858002	1265.505981	-29.404375	69.601875	-12.639375
285.053009	169.031006	1092.631958	-43.754375	85.128754	-17.058125
158.477997	81.191002	1106.417969	-44.191875	83.650002	-16.108749
182.328995	107.360001	1087.874023	-37.021252	63.735001	-10.845625
171.593002	86.375999	928.298035	-35.866249	68.438126	-4.532500
11.407001	-117.363998	921.770996	-30.485001	81.760002	1.846250
133.346008	63.195999	642.330017	-18.252501	54.407501	-6.339375
22.326000	-90.158005	716.505981	-21.280001	48.641251	-10.268125
-226.676010	-56.791000	674.965027	2.878750	58.957500	2.353750
-82.654999	-24.156000	686.494019	11.143125	34.877499	4.396875
-237.290009	-17.507000	681.247986	14.485625	40.131874	3.705625
-224.479996	-54.351002	678.686035	20.461876	26.411875	3.075625
-264.923004	12.505000	722.484009	12.534375	10.801875	1.408750
-320.433014	-17.446001	801.540039	2.506875	14.892500	2.655625
-359.472992	-28.365000	833.747986	3.237500	2.301250	1.868125
-387.532990	-24.095001	934.703003	3.963750	-5.131875	8.570625
-336.903015	20.374001	958.249023	-3.631250	-3.933125	2.848125
-347.761017	-45.018002	982.283020	-1.933750	-6.851250	1.435000
-321.347992	42.821999	1018.273010	-4.484375	-5.206250	3.898125
-333.243011	-36.844002	1048.102051	-4.786250	-7.669375	2.139375
-286.944000	-15.799000	1031.265991	-3.158750	-10.412500	3.198125
-312.381012	-25.925001	1099.281006	0.621250	-7.616875	2.905000
-287.981018	-23.790001	1071.037964	-2.030000	-6.094375	0.196875
-277.794006	-34.831001	1100.562012	0.109375	-9.436875	-0.770000
-257.725006	1.525000	1101.781982	-2.625000	-4.497500	-2.187500
197.152008	-2.806000	1193.098999	1.995000	7.787500	-6.081250
172.569000	-5.246000	1137.954956	2.786875	10.040625	-5.683125
167.445007	14.091001	1116.971069	3.972500	7.341250	-4.493125
198.372009	43.310001	1120.875000	4.987500	7.730625	-5.114375
176.473007	29.158001	1128.682983	2.559375	7.485625	-3.723125
186.904007	34.098999	1197.003052	4.528125	3.298750	-2.012500
153.841995	42.517002	1249.463013	4.195625	9.148125	-0.730625
127.063004	15.921000	1396.351074	1.216250	11.375000	1.981875
117.425003	29.280001	1408.002075	-3.771250	18.213125	4.200000
63.135002	-20.374001	1453.752075	-8.636250	19.630625	4.270000
76.615997	-5.002000	1466.562012	-5.429375	9.288125	7.888125
119.559998	-25.375999	1505.175049	7.581875	7.603750	10.880625
132.369995	57.767002	1411.052002	18.418751	8.535625	4.825625
116.265999	107.909004	1335.534058	15.185625	18.790625	-0.739375
116.998001	105.529999	1325.957031	0.993125	31.268126	2.590000
120.474998	109.495003	1208.471069	-14.568750	46.536877	-4.987500
153.598007	59.779999	1270.264038	-29.351875	62.531876	-11.291875
75.274002	4.453000	1215.669067	-33.740002	67.195625	-9.047500
62.525002	7.747000	1194.318970	-25.816875	61.223751	-12.477500
-13.542000	18.666000	978.195984	-16.401875	48.483749	-12.845000
-163.541000	22.753000	958.798035	-10.583125	48.860001	-4.585000
-0.183000	63.928001	884.195007	-10.583125	55.173126	-10.517500
-211.852997	-40.443001	948.916016	-10.994375	55.173126	-10.517500
-211.852997	-40.443001	948.916016	-9.738750	61.070625	-4.112500
-151.158005	-13.420000	942.877014	-12.499375	42.568748	3.158750
-201.544006	-49.410000	903.958984	-25.042500	38.381874	-0.253750
-239.181000	-44.957001	983.807983	-23.240000	12.250000	-2.611875
-211.304001	-22.387001	854.488037	-31.950624	1.500625	-3.005625
-263.032013	-52.094002	978.195984	-30.428125	6.650000	-1.876875
-271.023010	-95.465004	892.369019	-20.951876	-0.306250	3.425625
-225.089996	-106.567001	934.885986	-10.758125	0.236250	3.705625
-218.441010	-96.563004	876.630981	-9.874375	12.123125	-1.701875
-226.737000	-135.968994	865.041016	-2.695000	18.690001	-1.334375
-263.398010	-106.872002	862.906006	-4.357500	14.039375	3.714375
-264.862000	-105.408005	866.992981	-4.108125	10.771250	6.094375
-313.417999	-144.875000	883.523987	-5.359375	6.396250	1.824375
-355.446991	-134.444000	861.869019	-5.044375	5.928125	0.166250
-377.773010	-156.587006	935.130005	-2.677500	3.285625	0.730625
218.074997	289.261993	1179.739990	16.848125	-33.005001	-1.435000
195.749008	325.313019	1233.237061	16.791250	-29.946875	2.835000
286.089996	344.101013	1175.409058	13.378750	-28.126875	4.051250
242.841003	318.237000	1146.860962	13.895000	-16.362499	5.258750
256.078003	342.759003	1127.280029	9.038750	-4.173750	1.203125
292.006989	335.927002	1048.712036	5.556250	-0.809375	-2.537500
228.872009	294.080994	1097.938965	1.439375	11.545625	-9.603125
253.943008	319.457001	1120.020996	8.697500	10.815000	-3.911250
176.046005	351.970001	1293.505005	13.728750	3.771250	5.276250
270.108002	440.420013	1503.588989	14.883750	6.943125	4.055625
180.376999	482.998016	1489.254028	5.582500	13.877500	13.934375
192.150009	484.462006	1562.088013	-8.168125	19.044374	9.935625
207.888000	446.459015	1441.613037	-23.261875	27.024376	4.038125
178.608002	347.028992	1436.427979	-36.421875	33.267502	-1.085000
206.423996	260.897003	1357.859985	-41.702499	33.005001	-15.968750
163.541000	281.393005	1335.473022	-34.943127	28.153126	-7.883750
277.123016	270.778992	1266.055054	-22.999374	34.803123	-9.751875
159.270996	364.536011	1308.572021	-17.810625	40.026875	-7.240625
256.261017	325.069000	1227.320068	-21.848749	38.115002	-15.334375
202.459000	222.345001	1194.258057	-11.690000	68.705002	-34.006874
167.018005	228.201004	1091.838989	-2.279375	72.196251	-33.775002
145.729004	207.766006	1066.218994	-3.885000	72.428123	-21.826876
178.119995	166.835007	933.726990	-25.007500	64.124374	-24.018749
19.520000	107.360001	744.687988	-27.986876	63.581875	-15.115625
-103.090004	173.057007	866.566040	-21.695625	30.865625	2.611875
-85.643997	41.297001	675.635986	-28.494375	10.858750	3.478125
-190.380997	63.257000	675.026001	-10.871875	7.691250	14.240625
-116.022003	62.708000	775.614990	-8.929375	-8.798125	3.333750
-151.645996	103.944000	721.325012	-9.450000	6.860000	-2.349375
-167.384003	33.489002	802.942993	-2.756250	15.233750	-2.353750
-163.053009	67.892998	828.197021	-9.178750	10.206875	1.413125
-169.275009	44.347000	881.023010	-10.959375	9.261875	5.337500
-200.080002	2.135000	949.830994	-11.510625	5.591250	4.453750
-256.016998	106.750000	998.630981	-8.347500	1.579375	1.828750
-262.605011	16.531000	1020.468994	-7.262500	5.823125	-3.224375
-294.752014	56.913002	1048.223999	-6.930000	0.831250	0.017500
-270.291016	44.469002	1054.263062	-2.585625	-0.800625	1.102500
-255.223999	54.167999	1064.816040	-1.246875	-1.343125	1.264375
217.770004	112.179001	1155.096069	1.408750	3.136875	0.686875
259.006012	103.273003	1147.348999	-1.723750	-2.791250	4.668125
290.360016	67.587997	1165.526978	1.111250	-3.110625	4.484375
291.824005	86.437004	1155.766968	6.426875	1.382500	0.008750
248.941010	98.820000	1122.400024	6.553750	5.250000	0.678125
246.561996	116.632004	1130.146973	2.660000	9.314375	-3.276875
165.675995	88.084000	1378.843994	6.676250	14.323750	0.805000
207.888000	75.212997	1687.260010	1.973125	8.045625	-1.640625
148.108002	76.127998	1898.015015	-10.596250	12.691875	3.928750
119.864998	43.188000	1966.945068	-4.318125	29.465626	6.864375
117.973999	117.363998	1818.593018	25.366249	18.068750	5.700625
184.281006	191.052002	1661.395996	34.986874	-14.599375	6.151250
392.169006	224.906998	1265.688965	5.381250	-11.606875	-7.310625
354.105011	241.438004	1069.879028	-20.908125	30.664375	-2.410625
456.341003	321.774994	983.991028	-45.058125	72.852501	-5.661250
300.608002	211.425995	953.429993	-44.292500	118.741875	-17.364374
233.386002	123.280998	1030.900024	-44.454376	117.656876	-22.417500
178.059006	98.027000	973.864990	-45.539375	90.264999	-23.205000
75.091003	91.439003	959.286011	-34.461876	63.568748	-12.267500
16.775000	22.753000	881.694031	-40.840626	50.071877	-2.178750
-87.535004	134.139008	942.816040	-36.369373	27.829374	12.626250
-0.427000	-121.939003	767.380005	-33.201874	-17.946251	-5.950000
-140.421997	-41.663002	621.041016	-6.973750	-10.583125	4.445000
-40.320999	2.928000	700.401978	-3.023125	14.201250	6.794375
-40.625999	-76.982002	607.559998	-7.997500	44.585625	-9.590000
-228.018005	-73.871002	657.518982	-0.840000	48.199375	-2.384375
-227.164001	-82.654999	734.195984	-12.407500	18.825624	0.896875
-238.326996	-129.076004	776.286011	-9.143750	7.328125	-0.608125
-269.498016	-148.108002	916.098022	-8.194375	-5.814375	0.441875
-249.307007	-71.248001	919.697021	-11.615625	-7.748125	-3.189375
-267.424011	-195.078003	1008.817993	-4.375000	-8.146250	-2.345000
-243.329010	-102.358002	1006.134033	-6.085625	-6.855625	0.293125
-214.964005	-179.339996	1067.865967	-2.301250	-11.795000	0.008750
-218.867996	-140.361008	1087.447021	5.534375	-13.645625	2.786875
-202.641998	-128.222000	1091.594971	2.607500	-10.377500	0.170625
-196.602997	-128.832001	1088.605957	2.380000	-6.326250	-1.194375
-198.860001	-101.625999	1075.552002	0.923125	-3.237500	-0.940625
-166.042007	-113.033005	1033.889038	0.494375	0.476875	-1.198750
207.278000	246.013000	1166.990967	5.215000	-7.030625	-0.385000
190.442001	225.699997	1159.915039	-0.634375	2.716875	-1.413125
231.373001	221.186005	1135.149048	-3.198125	0.490000	-4.125625
249.063004	209.291000	1143.445068	-4.427500	1.890000	-5.206250
247.416000	188.307007	1128.378052	-4.681250	4.431875	-4.563125
253.089005	202.397995	1293.505005	-2.226875	13.453125	-3.303125
167.811005	168.604004	1623.515015	-3.959375	16.572500	-0.455000
170.373001	230.335999	1805.356079	6.991250	23.581249	5.565000
118.523003	239.913010	1948.279053	8.531250	38.701248	5.328750
49.471001	270.351990	1859.828979	16.038750	46.248123	1.605625
64.903999	269.619995	1519.875977	17.206875	41.636875	6.571250
166.347000	264.373993	1378.112061	0.778750	40.814377	3.193750
268.949005	256.627014	1210.484009	-19.888750	37.336250	-9.270625
154.757004	265.654999	1068.719971	-38.014374	47.215000	-11.768750
241.499008	213.805008	1002.230042	-37.843750	74.243752	-18.790625
117.120003	229.482010	1189.134033	-44.891876	90.715622	-26.661249
101.503998	86.253998	997.044983	-40.665627	81.703125	-28.665001
111.325005	100.528000	1065.487061	-46.213123	57.478748	-27.453125
60.389999	8.784000	918.354980	-46.213123	28.831249	-24.828125
-34.160000	-2.623000	756.949036	-54.538750	28.831249	-8.986250
-109.922005	-26.657000	763.171021	-30.638124	1.802500	-8.986250
-109.922005	-26.657000	728.705994	-10.005625	15.933750	1.338750
-137.677002	101.808998	728.705994	-12.897500	35.625626	-10.215625
-140.056000	-12.383000	563.091003	-14.581875	52.320625	-13.995625
-105.469002	-67.771004	612.622986	-8.509375	51.169998	-9.743125
-237.595001	29.829000	599.142029	-2.598750	19.788124	-6.208125
-257.664001	-64.660004	640.866028	-7.231875	20.790001	-3.185000
-362.278992	-87.656998	798.062988	-15.732500	7.669375	0.651875
-372.161011	-61.854000	825.330017	-16.161249	-2.922500	10.727500
-404.795990	-83.142998	1004.121033	-10.093125	-14.013125	10.688125
-361.608002	-120.719002	970.632019	-16.248751	-12.941250	6.370000
-381.372009	-95.098999	1072.928955	-7.958125	-6.658750	2.366875
-321.104004	-138.165009	1058.105957	-14.560000	-11.173750	-3.998750
-334.157990	-129.503006	1103.489990	-2.056250	-10.399375	4.217500
-225.822006	-97.234001	1075.734985	-6.720000	-13.418125	0.691250
-276.574005	-125.233002	1091.777954	-3.132500	-8.312500	1.456875
-237.839005	-88.633003	1055.360962	0.621250	2.826250	1.728125
-251.320007	-125.843002	1023.824036	-1.190000	5.503750	-4.834375
216.488998	311.466003	1174.677002	25.296249	-31.709999	-11.725000
211.425995	279.257996	1192.916016	27.536249	-43.343124	-3.876250
302.316010	356.118011	1171.016968	25.895624	-34.615002	-5.355000
235.460007	326.106018	1095.682007	16.808750	-20.076876	-4.851875
286.639008	333.243011	1104.161011	11.528125	-12.280625	0.144375
282.795990	331.962006	1119.959961	14.021875	-8.588125	2.235625
302.864990	346.480011	1200.541016	13.059375	-4.383750	0.446250
301.950012	450.302002	1343.525024	13.514375	-5.394375	3.941875
288.286011	478.727997	1611.315063	10.451875	6.877500	8.750000
308.721008	567.666016	1765.828003	-1.671250	29.133125	2.471875
207.216995	588.833008	1908.385010	-10.911250	49.398125	3.797500
213.561005	522.403992	1747.223022	-22.049999	70.100624	8.461250
174.764999	441.640015	1614.853027	-28.516251	79.126251	-1.938125
242.962997	438.223999	1479.188965	-32.891251	64.588127	-15.128750
325.679016	332.389008	1243.667969	-41.369999	46.593750	-20.584375
290.360016	263.580994	1033.645020	-42.612499	43.841873	-23.878750
236.130997	275.597992	885.049011	-25.326876	58.292500	-15.553125
222.162003	221.369003	1060.607056	-17.360001	73.841248	9.126250
204.106003	367.890991	915.061035	-23.502501	54.582500	-11.978750
144.875000	153.292999	764.390991	-17.854376	62.343750	-23.883125
87.291000	201.788010	753.411011	-14.507500	46.156250	-15.771875
-90.829002	135.054001	682.528992	-30.506874	35.244999	-19.320000
-72.285004	100.650002	709.064026	-28.962500	31.850000	-19.648125
-170.983002	17.934000	717.664978	-25.217501	19.757500	-19.565001
-184.830002	38.003002	685.030029	-14.953750	16.686251	-24.473749
-164.761002	-55.998001	738.770996	-8.487500	11.882500	-31.626875
-244.610001	97.966003	833.626038	-13.313125	7.665000	-24.023125
-169.335999	17.202000	871.263000	-18.094999	-19.486250	-6.313125
-95.403999	161.223007	950.135986	-11.221875	-17.517500	9.065000
-131.272003	65.391998	1012.356018	-18.781876	-5.280625	22.990625
-196.785995	71.308998	993.324036	-18.961250	-4.095000	24.325001
-188.794998	48.617001	1117.641968	-7.861875	7.026250	4.983125
-213.072998	-38.857002	1070.427979	-6.790000	13.632500	-12.324375
-243.024002	-19.215000	1053.958008	0.301875	0.608125	1.693125
-207.460999	-7.198000	1084.336060	7.218750	0.840000	8.973125
-194.468002	25.132000	1026.812988	12.617500	6.050625	-12.700625
-228.384003	-20.007999	1017.419006	17.486876	9.625000	-5.608750
-236.253006	43.675999	1019.859009	7.756875	6.790000	6.129375
245.708008	269.253998	1075.003052	-7.087500	1.522500	-22.535625
286.028992	304.938995	1099.159058	-1.653750	-3.801875	-9.419375
290.542999	300.608002	1059.143066	3.574375	2.603125	1.124375
273.279999	320.433014	1049.383057	4.602500	0.131250	5.022500
324.337006	316.955994	1059.386963	2.528750	-1.846250	1.763125
314.455017	299.510010	1055.787964	-0.455000	1.176875	-1.999375
312.808014	305.792999	1049.749023	-1.172500	2.944375	-4.077500
286.151001	314.699005	1143.505981	-0.310625	2.511250	-0.914375
309.453003	298.656006	1069.756958	0.070000	8.820000	-1.006250
209.291000	310.002014	1279.597046	0.700000	6.912500	1.268750
251.686005	325.618011	1257.149048	8.286250	1.916250	5.516875
231.921997	354.166016	1370.730957	9.839375	18.869375	4.970000
137.371994	410.347015	1342.305054	9.450000	20.103125	7.043750
130.479004	431.330994	1372.500000	8.338750	23.795626	12.775000
147.132004	419.619019	1470.893066	2.200625	23.200624	11.475625
213.927002	438.528992	1385.005005	4.252500	28.166250	3.084375
272.548004	339.587006	1222.013062	5.503750	37.568127	-1.977500
311.527008	334.768005	1091.717041	8.846250	40.145000	-7.988750
311.343994	346.480011	984.783997	8.124375	46.536877	-13.873125
235.460007	325.069000	985.150024	-4.558750	36.684376	-19.236876
330.864014	362.157013	1104.466064	-15.246875	12.779375	-30.187500
255.651001	394.914001	1025.898071	-23.406250	30.021250	-35.183750
139.751007	341.661011	1140.029053	-19.840626	39.694374	-27.090000
95.648003	373.929993	1116.117065	-23.143749	38.771252	-19.525625
26.657000	306.037018	1180.899048	-14.516250	37.336250	-14.988750
36.295002	349.652008	1151.070068	-6.903750	32.462502	-15.570625
-37.271000	346.480011	1160.402954	-6.903750	32.462502	-16.047501
-37.271000	250.344009	1073.416992	-13.256250	32.243752	-16.047501
20.618000	250.344009	1073.416992	-10.368750	32.799374	-18.939375
-29.280001	270.291016	1020.346985	-14.157500	46.423126	-21.629999
-102.663002	203.191010	945.195007	-20.623751	52.185001	-21.415625
-72.223999	184.585999	895.846008	-21.901251	48.912498	-12.670000
-153.720001	181.169998	817.888000	-27.151251	68.271873	-3.447500
-244.061005	94.733002	788.851990	-24.788750	73.867500	7.166250
-272.548004	93.330002	690.642029	-13.326250	56.603748	3.360000
-316.528992	56.669003	763.598022	-3.845625	30.257500	-3.661875
-327.265015	136.578995	777.627991	-0.498750	16.966249	0.826875
-326.838013	112.056999	821.914001	1.006250	11.751250	-3.386250
246.257004	385.398010	1020.164001	1.719375	-3.141250	0.905625
238.570999	354.776001	1042.428955	-1.645000	-1.343125	0.901250
236.192001	372.893005	1034.743042	1.706250	-1.662500	-1.876875
230.701996	368.683990	1017.846008	2.030000	-3.088750	0.021875
237.350998	374.113007	1020.164001	5.945625	-3.596250	-0.376250
233.996002	376.003998	1039.379028	4.803750	-6.492500	-1.203125
243.329010	418.947998	1146.433960	4.545625	-4.270000	3.198125
139.994995	442.554993	1276.058960	5.250000	0.910000	4.466875
149.266998	440.054016	1342.792969	2.345000	6.103125	4.956875
160.307999	515.328003	1417.151978	2.148125	12.140625	9.870000
142.740005	392.718018	1349.503052	-2.358125	9.843750	16.598749
102.663002	472.933014	1298.202026	4.060000	0.673750	10.132500
170.128998	460.610992	1354.749023	0.507500	-8.330000	-0.096250
148.046997	554.246033	1419.775024	-8.229375	-22.461250	2.301250
353.007019	450.851013	1460.889038	-15.868125	-10.329375	-5.236875
392.046997	453.412994	1338.583984	-6.881875	22.631874	-11.480000
369.843018	505.385010	1453.568970	-12.271875	68.420624	-32.305000
309.757996	499.162994	1197.003052	-1.338750	109.143127	-42.695625
146.460999	525.453979	1327.542969	-21.848749	103.398750	-30.248751
190.563995	411.750000	1276.852051	-27.960625	61.158127	-22.811251
326.716003	403.149017	1057.374023	-18.011875	68.446877	-28.726250
133.772995	293.044006	960.505981	-19.398750	86.660004	-30.511250
69.905998	250.283005	860.039001	-14.319375	74.326874	-35.244999
29.097000	216.306000	776.591003	-13.356875	73.075623	-33.315624
-49.532001	274.011993	695.156006	-14.945000	68.586876	-31.049376
-271.205994	172.569000	678.442017	-17.578751	66.578751	-20.120625
-183.305008	170.190002	777.200989	-23.161249	48.741875	-17.154375
-228.994003	177.449005	689.848999	-20.982500	34.846874	-11.812500
-274.743988	117.973999	743.651001	-23.874374	38.145626	-8.763125
-274.500000	106.567001	732.061035	-19.530001	27.829374	-9.808750
-346.419006	118.461998	748.835999	-12.481875	29.859375	-11.659375
-279.562988	73.078003	721.080994	-12.285000	30.843750	-16.865625
-462.684998	86.986000	711.931030	-11.121250	23.887501	-14.616875
-475.921997	71.736000	733.403015	-9.821875	9.961875	-12.858125
-521.794006	32.025002	791.169983	-6.523125	5.853750	1.977500
-541.557983	97.539001	859.551025	-2.756250	-7.052500	3.478125
-470.127014	84.729004	896.639038	4.458125	-13.308750	5.048750
-499.102020	153.781006	929.945007	3.548125	-12.031250	5.976250
282.429993	337.147003	1027.362061	-0.218750	0.420000	-3.714375
277.306000	317.200012	1028.216064	0.774375	0.183750	-3.819375
285.907013	320.433014	1039.440063	5.048750	-0.350000	-2.520000
258.457001	348.066010	1034.560059	6.391875	-0.441875	-0.389375
276.878998	346.723999	1032.852051	4.589375	-0.376250	0.984375
278.403992	351.665009	1068.171021	3.963750	1.102500	-0.507500
268.583008	352.458008	1078.785034	3.823750	-1.321250	-1.474375
226.492996	352.580017	1158.572998	2.537500	0.490000	-2.756250
210.084000	381.860016	1284.416016	5.670000	-0.638750	-1.579375
206.302002	373.381012	1237.323975	6.313125	8.662500	-1.894375
128.222000	462.746002	1449.238037	2.734375	9.598750	-1.351875
214.658997	440.114990	1414.468018	0.210000	-2.909375	1.439375
236.253006	434.015015	1351.638062	-2.301250	4.856250	2.301250
210.876999	436.028015	1418.921021	-5.110000	11.182500	-5.079375
262.605011	450.545990	1296.738037	-10.403750	33.950001	-18.348749
225.151001	421.632019	1179.801025	-13.916875	49.411251	-24.714375
190.563995	392.230011	1231.041016	-25.326876	54.595627	-30.699375
190.563995	414.860992	1200.358032	-32.755627	50.828751	-30.445625
195.261002	330.803009	1211.582031	-29.811251	41.925625	-24.254999
132.858002	332.571991	1157.109009	-19.101250	36.540001	-15.063125
135.175995	357.032990	1159.182983	0.231875	38.062500	-12.306875
107.665001	247.416000	1027.666992	5.656875	56.157501	-15.509375
25.375999	339.526001	1005.096985	7.573125	63.743752	-27.461876
-32.269001	280.416992	952.942017	-9.047500	72.305626	-35.949375
-129.563995	256.139008	930.921021	-14.634375	65.327499	-25.204374
-39.161999	282.308014	928.176025	-18.243750	43.750000	-4.077500
-8.052000	227.712997	887.976990	-20.418125	41.606251	-3.478125
-116.998001	224.846008	866.505005	-16.743126	54.757500	-19.630625
-232.959000	95.891998	782.569031	-14.866250	44.314377	-21.800625
-265.227997	139.324005	827.648010	-13.680625	35.840000	-17.762501
-338.976990	135.908005	869.494019	-13.741875	24.644375	-7.826875
-299.083008	117.242004	879.192993	-13.663125	17.268126	-5.713750
-349.652008	124.378998	900.299011	-17.040625	12.897500	-0.783125
-333.425995	117.303001	892.002991	-19.499374	13.107500	-0.056875
-315.553009	65.574997	905.850037	-16.550625	12.757500	-4.488750
-330.253998	144.447998	878.216980	-10.075625	14.223125	1.500625
-347.334015	59.841000	872.666016	-10.241875	15.251250	0.358750
-374.967010	104.798004	865.651001	-13.720000	11.186875	-0.446250
258.700989	218.074997	1057.557007	4.427500	-0.940625	5.158125
276.817993	216.184006	1060.607056	1.793750	-0.975625	3.683750
283.588989	206.729004	1079.151001	2.034375	-0.660625	0.253750
258.457001	208.863998	1083.909058	-0.446250	-5.398750	-3.027500
272.304016	213.561005	1085.800049	-0.210000	-6.033125	-3.854375
248.574997	200.507004	1136.734985	2.178750	-6.094375	-4.510625
247.294006	222.589005	1201.395020	6.855625	-4.296250	-4.563125
188.184998	250.222000	1397.998047	8.793750	1.618750	-1.443750
178.181000	259.067017	1511.885010	5.950000	7.787500	1.465625
127.489998	319.761993	1551.656982	-3.714375	11.703125	7.599375
167.445007	251.990997	1558.977051	-16.533125	6.549375	7.875000
201.117004	287.248993	1537.139038	-20.120625	0.910000	3.762500
249.246002	218.319000	1461.804077	-29.071875	-1.141875	-0.918750
378.261017	190.503006	1370.303955	-28.280001	23.646875	-7.752500
356.423004	153.903000	1330.958984	-25.357500	45.661877	-6.173125
397.903015	188.550995	1182.119019	-16.520000	62.308750	-16.480625
321.835999	145.363007	998.387024	-15.303750	88.300629	-17.609375
122.122002	142.862000	1113.311035	-3.285625	92.255623	0.533750
184.951996	164.272995	832.528015	-3.285625	92.255623	7.428750
155.061996	141.214996	1119.899048	-14.096250	41.383125	7.428750
155.061996	141.214996	1119.899048	-26.853750	33.271873	17.465000
127.551003	120.169998	1000.583008	-18.331249	69.628128	14.953750
23.607000	71.858002	1025.104980	-18.790625	93.957497	20.864374
-5.978000	42.212002	1000.338989	-22.526875	103.941254	21.643126
-223.503998	3.111000	927.749023	-22.242500	92.540001	14.196875
-236.009003	-2.135000	941.108032	-25.655001	56.573124	22.946875
-227.835007	35.196999	855.525024	-23.458750	32.466873	23.834999
-293.287994	12.993000	866.200012	-23.165625	46.685623	18.698750
-260.713989	14.640000	846.557983	-15.859375	40.941250	0.774375
-314.210999	-0.854000	785.070007	-13.011250	35.590626	10.307500
-355.325012	-39.223000	837.835022	-13.138125	15.798125	6.641250
-317.261017	-2.867000	797.819031	-13.658750	0.345625	4.291875
-339.830994	22.875000	869.189026	-12.350625	5.145000	13.628125
-369.050018	-73.566002	856.989014	-8.137500	-1.981875	4.830000
-379.359009	10.919000	881.755005	-3.119375	-2.174375	-1.505000
-417.179016	-22.814001	887.122986	-0.853125	8.216250	0.936250
-404.917999	6.954000	893.588989	4.484375	7.065625	1.172500
-455.059998	26.657000	956.601990	6.741875	4.983125	5.950000
375.272003	156.709000	926.955994	-55.488125	21.262501	4.921875
545.462036	154.208008	1263.676025	-63.463749	35.004375	-5.635000
217.647995	113.887001	1059.082031	-15.841875	2.349375	-17.430000
341.966003	75.701004	1068.415039	-11.991875	-11.383750	-12.910625
328.302002	99.125000	1122.217041	3.390625	-12.788125	-8.413125
310.246002	84.180000	1131.000977	11.965625	-14.008750	3.416875
339.891998	103.395004	1157.901978	15.693125	-4.720625	11.838750
363.864990	82.959999	1341.511963	25.952499	9.629375	3.338125
318.664001	124.806000	1429.352051	27.488125	29.662500	-2.200625
176.290009	212.158005	1447.530029	28.660625	51.511250	0.214375
130.783997	147.132004	1659.566040	20.046249	69.667503	-3.451875
78.018997	200.263000	1636.691040	21.931875	101.626877	-11.340000
4.941000	261.812012	1557.940063	14.061250	114.480621	-15.308125
33.306000	264.800995	1586.244019	3.198125	113.828751	-16.248751
131.455002	311.466003	1525.244019	-4.497500	119.945000	-22.251249
88.511002	274.804993	1395.619019	-21.328125	135.861252	-28.441875
30.316999	245.951996	1324.980957	-27.553749	136.189377	-27.768126
-42.517002	147.376007	1166.076050	-27.181875	123.129997	-19.184376
-160.369003	150.242996	1029.313965	-17.386250	112.739372	-18.650625
-311.404999	131.759995	1073.355957	-21.258125	79.646873	-12.775000
-244.671005	122.061005	887.428040	-18.462500	70.595001	-17.653126
-314.576996	153.598007	859.551025	-9.275000	66.438751	-23.712500
-296.338013	-28.975000	772.931030	-8.500625	39.038124	-14.905625
-123.280998	129.869003	881.205994	-10.071250	50.128750	-13.728750
-226.371002	24.461000	735.965027	-12.801250	78.404373	-25.987499
-275.597992	10.248000	605.791016	-21.078751	77.485626	-17.780001
-406.076996	-62.037003	489.524994	-9.708125	75.359375	-22.701876
-500.200012	-18.056000	452.925018	-3.823750	50.518124	-23.051874
-521.611023	-42.395000	420.899994	1.544375	31.880625	-16.358126
-630.007996	-29.646000	403.088013	-0.126875	22.076250	-3.338125
-663.070007	-100.345001	477.507996	-1.531250	5.232500	2.673125
-732.793030	-5.612000	554.124023	3.150000	2.419375	2.152500
-756.095032	-66.489998	631.960022	3.154375	1.767500	4.274375
-750.483032	-41.541000	677.832031	3.364375	-4.195625	-1.015000
-747.311035	-11.102000	742.552979	-0.398125	-6.886250	4.475625
-744.505005	17.446001	780.983032	0.017500	-0.546875	-3.626875
-771.588989	-18.849001	777.872009	-8.286250	-2.073750	2.091250
-738.100037	-31.537001	766.343018	-2.660000	4.891250	3.395000
-62.586002	100.955002	1148.203003	3.696875	-0.306250	1.785000
-78.933998	99.552002	1124.779053	1.610000	3.263750	3.360000
-101.077003	85.765999	1115.140991	0.800625	5.495000	4.803750
-104.431999	85.765999	1083.238037	0.240625	5.381250	0.533750
-133.589996	91.561005	1097.024048	3.508750	2.651250	-0.761250
-119.559998	90.036003	1146.739014	5.136250	-0.875000	-2.603125
-225.395004	92.842003	1291.919067	10.797500	-7.888125	1.089375
-262.605011	108.335999	1426.790039	9.528750	-12.521250	6.518750
-329.888000	92.354004	1556.049072	5.910625	-18.606874	16.458750
-246.867004	139.934006	1542.750977	21.997499	-17.885000	28.573126
-250.587997	200.811996	1538.786011	15.938125	-12.674375	22.452499
-155.061996	204.289001	1476.322021	7.424375	4.331250	13.829375
-109.312004	279.502014	1388.786987	-5.705000	14.433125	-2.156875
-70.455002	160.369003	1426.607056	-11.226250	1.850625	-9.804375
-84.057999	178.119995	1250.805054	-3.325000	-7.297500	-14.748125
41.480000	93.269005	1292.712036	5.276250	8.330000	-11.287500
98.576004	250.587997	1083.177002	0.840000	77.367500	-20.881874
-167.018005	138.104004	1141.553955	-1.373750	122.950623	-11.532500
-18.849001	261.812012	1084.031006	-16.415001	80.114998	-11.020625
-21.716000	184.951996	973.926025	-38.884998	93.305626	0.393750
-181.169998	82.411003	905.423035	-43.544376	107.603127	-1.255625
-210.145004	68.442001	788.424988	-35.826874	95.445000	-8.653750
-392.657013	34.160000	878.156006	-35.376251	83.365623	-5.398750
-325.923004	-51.667000	744.627014	-29.487499	61.131874	-8.662500
-343.186005	47.153000	798.307007	-21.157499	57.575001	-11.930625
-392.962006	-27.877001	692.776978	-17.653126	76.356873	-15.028125
-377.955994	-18.849001	691.862000	-14.647500	61.871250	-6.405000
-527.101013	-31.415001	644.770020	-13.072500	54.355000	-2.034375
-500.688019	-22.143000	602.863037	-11.711875	48.842499	-3.635625
-633.973022	-65.696999	585.356018	-7.643125	33.740002	0.350000
-697.596008	-46.786999	547.109009	-13.916875	20.527500	5.215000
-704.854980	-63.928001	565.531006	-16.476250	11.370625	-4.720625
-712.296997	-91.682999	528.565002	-16.161249	-6.378750	-1.404375
-706.684998	-65.026001	626.897034	-12.407500	-18.147499	-0.210000
-667.645020	-88.999001	660.812988	-6.317500	-17.850000	-6.720000
-701.134033	-80.215004	735.781982	3.425625	-13.658750	0.043750
-631.044983	-114.192001	774.639038	5.477500	-12.945625	-0.577500
-673.744995	-87.718002	794.403015	5.206250	-8.907500	-0.901250
142.800995	7.015000	1119.228027	7.240625	-7.021875	4.046875
148.046997	15.799000	1167.417969	5.915000	-3.110625	3.416875
140.361008	26.108000	1111.603027	1.421875	3.486875	-0.818125
141.276001	20.801001	1144.359985	1.281875	4.703125	0.568750
125.538002	27.389000	1186.328003	2.467500	0.476875	1.198750
47.214001	-30.073000	1280.024048	1.260000	-0.848750	4.173750
69.357002	-94.428001	1613.755005	18.961250	-3.259375	14.223125
192.150009	29.280001	1514.691040	33.718124	-10.530625	15.841875
101.931000	93.452003	1402.024048	36.312500	8.246875	11.475625
76.555000	142.313004	1329.006958	30.498125	36.378124	8.085000
21.655001	197.457001	1289.601074	17.981251	47.757500	4.554375
31.903000	160.247009	1317.478027	10.338125	30.795626	7.901250
43.675999	222.162003	1277.523071	1.758750	14.660625	9.485000
37.758999	192.272003	1335.900024	-12.971875	-5.722500	7.043750
309.209015	132.126007	1311.317017	-19.879999	-0.511875	4.029375
142.800995	101.138000	1198.894043	-19.897499	30.638124	-7.918750
143.106003	61.427002	1247.572021	-20.037500	38.373123	-8.185625
171.410004	69.600998	1113.311035	-14.153125	58.034374	-11.882500
51.789001	19.153999	1141.676025	0.013125	72.078125	-6.711250
-1.647000	66.124001	1055.360962	-7.218750	53.169376	-14.581875
-52.948002	44.957001	1030.717041	-11.978750	40.875626	-11.414375
-114.557999	-4.514000	1123.498047	-3.819375	7.175000	-19.801250
-56.608002	94.733002	966.728027	-3.819375	0.210000	-33.245625
-46.786999	-5.063000	971.303040	-4.851875	0.210000	-33.245625
-46.786999	71.858002	1008.879028	3.841250	24.911249	-21.638750
-73.261002	71.858002	939.827026	-2.104375	21.599375	-20.330626
-96.929001	52.338001	939.827026	-4.620000	22.251249	-12.731250
-108.763000	-4.575000	961.543030	-3.290000	17.688126	-3.123750
-125.050003	44.042000	898.773987	-1.688750	19.757500	-0.778750
-173.850006	-33.549999	894.869995	-8.268750	14.441875	8.942500
-156.647995	-17.934000	947.147034	-12.814375	12.022500	8.601250
-203.740005	-11.285000	909.083008	5.932500	0.599375	-10.880625
-75.457001	-14.762000	919.635986	12.110000	-22.487499	-10.036250
-144.996994	26.108000	926.285034	1.636250	-22.268749	2.288125
-209.352005	40.869999	966.911011	1.137500	3.465000	0.927500
-137.005997	27.450001	902.556030	2.021250	15.666875	4.764375
-288.468994	28.182001	969.838989	6.523125	7.673750	1.653750
-274.622009	16.531000	905.850037	4.541250	-10.788750	0.280000
216.367004	26.718000	1200.358032	3.714375	12.425000	0.389375
172.141998	57.706001	1201.089966	1.518125	13.737500	-1.693125
166.102997	55.021999	1261.602051	0.323750	16.716875	0.026250
161.772003	63.500999	1315.464966	-0.826875	19.009375	0.310625
90.462997	61.243999	1282.219971	-5.608750	13.068125	4.383750
145.850998	46.848000	1229.088989	-6.571250	21.665001	5.333125
155.611008	25.925001	1375.000977	-6.527500	20.370001	7.608125
57.035000	35.806999	1330.044067	-3.661875	1.063125	3.163125
165.432007	43.615002	1341.755981	3.373125	26.110001	-0.109375
91.682999	71.125999	1223.354980	0.586250	59.005627	-1.920625
40.869999	35.501999	1257.026978	-1.268750	75.748749	-3.981250
45.567001	31.598000	1256.112061	7.525000	83.409378	-7.638750
-68.869003	54.473000	1214.083008	2.835000	81.108124	-8.312500
-20.618000	33.916000	1222.379028	0.756875	67.930626	-8.776250
-66.978004	56.913002	1182.851074	1.920625	71.400002	-15.448125
-161.893997	80.093002	1097.817017	-8.067500	74.790627	-14.328125
-188.184998	73.261002	1100.989014	-9.012500	75.486252	-8.898750
-274.438995	32.390999	1039.317993	-2.830625	73.946251	-2.502500
-330.681000	76.860001	993.080017	-0.048125	61.573750	-0.021875
-338.001007	35.563000	962.458008	2.996875	45.058125	-1.015000
-375.821014	12.627000	963.190002	2.318750	33.350624	-7.367500
-397.903015	60.878002	965.020020	-0.433125	32.134377	-7.555625
-394.243011	21.167000	950.257996	2.594375	33.954376	-3.749375
-424.682007	38.063999	935.617981	-4.865000	32.589375	3.303125
-412.238007	50.874001	924.820984	-8.382500	28.721874	5.831875
-433.770996	-58.072002	935.617981	-4.913125	27.558125	-0.196875
-490.989014	34.038002	958.249023	-2.218125	26.236876	-0.853125
-481.839020	-22.387001	967.277039	-4.694375	10.985625	2.782500
-474.153015	51.972000	947.452026	-7.770000	15.085000	6.890625
-502.334991	-2.135000	914.634033	1.491875	33.306873	5.871250
-498.553009	19.337000	860.039001	2.038750	37.428123	3.136875
-533.872009	30.866001	798.002014	-6.658750	31.915625	3.010000
-538.874023	-15.006001	768.843994	-10.346875	26.696251	5.355000
-586.210022	40.809002	761.096985	-8.898750	23.253124	-2.318750
-504.897003	18.239000	696.254028	-5.950000	19.543125	-1.386875
-552.781982	1.342000	669.963013	1.435000	7.157500	-3.640000
-594.445007	15.860001	744.200012	-1.303750	-1.929375	-3.670625
-519.231995	18.726999	711.015991	-6.759375	-5.236875	-6.483750
-143.289001	79.971001	1138.138062	2.292500	-1.588125	1.141875
-122.670998	68.869003	1155.706055	2.240000	2.804375	2.366875
-104.005005	62.403000	1126.303955	3.530625	6.733125	3.548125
-111.446999	85.827003	1118.312988	3.478125	8.811250	6.908125
-125.416000	88.266998	1117.276001	2.345000	6.313125	7.621250
-119.376999	95.586998	1090.009033	0.595000	9.401875	3.841250
-231.800003	65.636002	1280.938965	0.840000	4.130000	5.000625
-257.602997	65.148003	1317.661011	0.192500	-4.331250	-0.367500
-380.884003	78.690002	1432.951050	-6.580000	-9.384375	-4.571875
-296.886993	22.387001	1532.503052	-7.354375	-14.958125	-3.670625
-410.957001	0.671000	1528.660034	-12.753125	-24.381874	-9.795625
-222.589005	-62.586002	1597.162964	-3.976875	-34.208126	-5.123125
-137.798996	-20.862000	1554.097046	-9.983750	-4.781875	-16.445625
-153.231995	73.321999	1519.998047	-10.158750	-2.795625	-27.566875
-117.791000	177.876007	1370.609009	5.083750	7.459375	-37.511250
27.755001	216.244995	1271.545044	17.193750	42.161877	-13.833750
39.161999	243.878006	1130.329956	10.150000	60.996250	10.819375
41.236000	84.667999	1080.066040	-12.026875	80.508751	13.597500
-23.668001	123.159004	1024.617065	-23.353750	96.823128	-1.172500
-235.520996	88.694000	915.000000	-27.881874	107.821877	0.927500
-253.638000	-16.531000	969.106995	-18.090626	81.668121	4.239375
-285.846008	30.378000	792.695007	-0.603750	75.372498	-2.139375
-343.979004	-3.904000	747.250000	9.896250	49.441875	-0.573125
-310.916992	54.046001	761.645996	3.749375	22.955626	-5.971875
-328.790009	66.368004	668.804016	-9.283750	23.117500	-7.258125
-381.677002	-7.259000	792.512024	-27.676250	21.078751	6.348125
-341.782990	-12.078000	803.858032	-29.229376	25.983126	0.647500
-428.769012	-114.252998	808.799011	-23.279375	34.435623	1.872500
-410.468994	-99.674004	808.738037	-5.455625	26.158125	-3.526250
-474.092010	-80.825005	776.530029	12.131875	24.303125	-1.526875
-455.121002	-45.323002	766.830994	16.463125	23.379999	-8.176875
-511.606995	-47.336002	722.789001	18.309376	20.895000	-0.262500
-563.945007	29.158001	749.202026	17.010000	12.473125	5.162500
-592.249023	-23.851000	754.630981	16.126249	11.204375	3.237500
-622.565979	37.453999	766.038025	8.911875	7.455000	6.457500
-608.658020	-15.189000	783.117981	7.949375	-2.196250	4.650625
-634.949036	51.423000	812.642029	3.880625	-4.886875	2.388750
-615.916992	33.184002	847.229004	3.101875	-9.922500	2.323125
197.152008	131.820999	1106.113037	0.778750	-5.254375	0.437500
220.270996	147.986008	1124.108032	0.927500	-3.613750	0.730625
190.930008	135.602997	1127.951050	1.216250	-1.321250	0.656250
201.666000	146.522003	1117.947021	1.780625	1.264375	-1.111250
224.906998	141.337006	1127.463013	2.931250	-0.065625	0.245000
200.018997	140.300003	1124.108032	2.926875	-0.406875	0.402500
218.074997	154.208008	1121.302002	5.153750	2.191875	0.406875
185.318008	166.895996	1265.445068	4.055625	6.033125	-0.310625
116.693001	187.087006	1374.086060	5.403125	4.165000	1.023750
127.246002	179.766998	1491.999023	4.458125	7.494375	-2.970625
141.764008	254.003998	1567.700073	-0.021875	0.345625	-4.768750
111.508003	202.214996	1471.442017	-2.205000	-11.134375	2.620625
187.391998	155.306000	1446.005005	-2.191875	16.607500	1.575000
155.306000	217.038010	1507.432007	-4.156250	39.668125	-0.310625
178.425003	121.756004	1425.813965	0.135625	75.263123	-4.396875
61.792999	186.721008	1288.563965	-3.871875	92.076248	-5.928125
-95.160004	171.410004	1319.430054	-9.585625	75.302498	7.175000
0.427000	98.392998	1196.088013	2.366875	66.871872	1.386875
82.411003	183.548996	1190.536987	-3.031875	64.194374	-12.875625
10.431000	152.012009	1199.565063	-13.160000	29.286249	-15.680000
55.144001	38.491001	1084.275024	-12.031250	16.244375	-17.705626
163.113998	155.001007	1018.700012	-10.285625	29.395624	-23.060625
35.746002	70.455002	924.760010	-6.973750	43.561874	-14.581875
-90.158005	105.591003	852.718994	2.397500	49.783127	-7.140000
-127.063004	76.250000	856.867004	2.397500	41.960625	-6.833750
-124.013000	106.384003	897.249023	5.005000	41.960625	-6.833750
-124.013000	106.384003	836.676025	-0.542500	35.481251	-3.132500
-220.942001	81.191002	836.676025	-1.098125	34.098751	10.040625
-238.632004	47.702000	862.296021	-5.530000	32.764374	1.150625
-170.861008	106.750000	797.392029	-8.710625	25.475624	-4.073125
-299.998016	47.214001	822.096985	-5.665625	14.625625	-1.802500
-227.164001	94.183998	841.007019	-2.681875	3.915625	-8.977500
-298.351013	49.532001	804.528992	3.775625	-5.250000	-6.151250
-253.393997	48.556000	878.156006	-1.281875	-6.776875	-3.526250
-266.692017	69.235001	888.526001	5.617500	-5.971875	-10.823750
-307.501007	89.487000	919.392029	5.945625	-9.620625	-2.200625
-312.808014	116.265999	963.190002	-0.021875	-8.015000	-7.013125
-327.570007	72.590004	937.020996	-1.798125	-3.058125	-4.291875
76.982002	165.005005	1110.078003	0.520625	2.835000	-0.927500
109.800003	119.926003	1176.994995	0.231875	6.370000	0.336875
57.035000	123.403000	1186.389038	1.868125	3.731875	-3.941875
26.474001	144.509003	1169.858032	5.709375	-3.438750	-0.756875
45.932999	149.145004	1313.269043	3.552500	-5.971875	3.329375
53.985001	158.050995	1238.300049	4.270000	-2.975000	-2.485000
42.517002	192.333008	1372.195068	1.815625	6.024375	-0.315000
10.370000	134.626999	1487.973022	-5.761875	-23.541876	5.490625
207.888000	113.887001	1475.651001	-1.325625	-26.289375	4.961250
111.386002	185.928009	1436.367065	12.796875	-2.231250	3.876250
54.229000	274.377991	1302.899048	5.945625	9.003750	-5.315625
44.347000	261.751007	1358.165039	5.407500	21.739374	-5.770625
40.869999	215.695999	1203.774048	3.990000	41.352501	-0.166250
97.844002	190.625000	1308.083984	-6.107500	44.555000	8.535625
86.925003	190.320007	1255.989990	-6.768125	46.759998	2.143750
113.094002	98.209999	1208.410034	-22.868126	46.523750	-6.479375
84.729004	102.541000	1219.145996	-28.538124	41.790001	-10.211250
-1.769000	49.105000	1040.843018	-24.836876	36.868126	-8.771875
25.375999	113.887001	1048.529053	-11.812500	26.591249	-10.001250
18.726999	65.879997	1047.369995	4.274375	30.935625	-7.218750
-73.931999	94.183998	1017.480042	1.610000	26.805626	-12.652500
-47.458000	97.051003	984.296021	-28.315001	28.157499	-13.820625
-111.264000	40.687000	984.661987	-34.286877	31.425625	6.225625
-105.224998	31.171000	943.487000	-24.683750	16.191875	-8.211875
-127.429001	30.012001	935.801025	-16.555000	14.910000	-6.615000
-176.046005	-24.339001	886.208008	-14.634375	8.356250	-8.120000
-148.839996	1.708000	834.968018	-16.358126	4.545625	-10.066875
-240.584000	-9.943000	834.236023	-15.098125	3.045000	4.453750
-156.709000	26.901001	893.040039	-15.933750	-2.174375	8.080625
-124.440002	-117.486000	851.255005	-8.968750	-5.543125	-13.160000
-158.600006	-42.456001	885.658997	-6.343750	-6.496875	-21.450624
-100.650002	-99.490997	905.423035	-0.520625	1.229375	-24.206875
-170.373001	44.713001	990.822998	9.030000	20.059376	-9.900625
-175.313995	-14.762000	958.554016	21.603750	30.065001	-2.502500
-246.745010	-18.544001	987.468018	19.858126	8.850625	12.333125
-318.725006	-28.731001	1128.744019	8.636250	-13.864375	13.553750
-299.449005	-35.563000	1076.223022	-0.984375	-17.749374	14.892500
-254.979996	0.183000	1123.985962	2.690625	-6.238750	2.760625
172.996002	21.777000	1109.346069	1.185625	-0.271250	-0.096250
181.962997	23.302000	1108.369995	3.723125	-4.554375	2.003750
175.985001	23.302000	1131.489014	4.663750	-2.467500	4.729375
148.169006	2.745000	1264.713013	6.632500	1.715000	6.146875
126.453003	17.323999	1266.665039	6.339375	0.433125	2.835000
112.362000	38.612999	1143.994019	6.168750	1.443750	1.570625
114.192001	44.225002	1214.692993	5.495000	9.388750	5.280625
97.966003	34.952999	1496.269043	6.282500	5.223750	9.948750
22.326000	38.003002	1644.377075	4.541250	-7.857500	8.513750
86.620003	4.392000	1760.399048	-0.056875	-17.696875	6.146875
64.721001	-10.614000	1648.708008	2.681875	-5.337500	-4.948125
62.098000	60.207001	1674.023071	-1.150625	0.927500	-1.150625
103.395004	107.970001	1492.487061	-1.614375	-2.283750	-6.763750
291.213989	61.366001	1367.864014	-19.910625	2.546250	-8.146250
373.747009	56.242001	1276.852051	-37.161251	3.788750	-19.862499
353.128998	-2.867000	1142.957031	-52.994373	13.125000	-28.345625
365.268005	150.548004	988.200012	-55.636875	57.189999	-21.691250
322.019012	-27.999001	1078.358032	-17.290001	125.041878	6.247500
211.182007	7.381000	894.260010	0.420000	143.294373	12.429375
82.594002	-12.810000	892.918030	19.320000	132.733124	19.530001
-67.161003	-101.687004	823.072998	26.403126	90.746246	6.033125
-159.820007	4.636000	806.664001	22.207500	56.625626	2.944375
-186.598999	-9.150001	825.757019	18.563126	27.986876	15.596875
-175.680008	2.440000	797.940979	19.691875	21.061251	19.945625
-229.055008	10.919000	816.484985	18.996250	23.213751	14.796250
-234.423004	28.548000	772.626038	15.063125	13.759375	13.011250
-203.374008	-8.723001	789.340027	13.041875	-1.995000	8.675625
-280.600006	26.291000	828.075012	4.926250	-0.984375	1.579375
-223.931000	78.995003	846.619019	-0.126875	-2.887500	-7.341250
-306.097992	-7.259000	876.692017	0.345625	3.010000	-15.894375
-305.122009	129.807999	847.168030	4.440625	9.467500	-8.281875
-334.645996	-5.795000	862.783997	6.413750	5.040000	-4.786250
-325.434998	83.447998	883.828979	2.721250	-1.557500	-0.533750
-304.817017	47.824001	888.221008	2.979375	-2.983750	1.194375
-408.882996	95.038002	952.575989	8.373750	-5.250000	5.171250
-354.714996	47.336002	1007.171021	7.271250	-16.156876	4.799375
-361.058990	49.288002	1051.274048	7.004375	-15.890000	6.916875
-324.459015	43.005001	1110.322021	3.154375	-15.610000	-0.205625
-244.548996	54.656002	1111.664062	-0.214375	-20.776875	-4.300625
130.783997	102.785004	1113.859985	-1.010625	11.672500	-2.467500
105.957001	94.611000	1128.011963	0.175000	9.135000	-2.502500
142.557007	99.369003	1084.396973	1.159375	8.509375	-2.095625
90.951004	104.371002	1149.545044	1.513750	7.791875	1.491875
70.393997	95.586998	1205.421021	-0.560000	8.474375	1.478750
82.349998	100.589005	1164.428955	-2.415000	16.034374	-0.564375
5.124000	85.400002	1336.875977	-1.251250	22.378124	2.769375
-138.348007	87.840004	1508.164062	1.522500	19.525625	-1.050000
-207.826996	144.020996	1474.369995	5.818750	9.913750	8.036875
-95.831001	144.692001	1478.945068	1.828750	10.797500	11.440625
-128.953995	112.728004	1462.170044	-2.463125	12.547500	11.856250
-41.358002	94.793999	1463.024048	-1.855000	27.273750	5.311250
68.564003	67.404999	1420.506958	5.070625	46.414375	-3.832500
21.716000	128.466003	1367.681030	11.681250	57.028126	-3.058125
62.525002	130.173996	1344.256958	14.328125	51.432499	-3.211250
89.304001	168.542999	1281.244019	10.828125	44.834999	-3.710000
58.926003	175.619003	1168.881958	3.976875	37.861252	-9.528750
48.983002	136.701004	1168.271973	-3.491250	40.971874	-4.440625
35.746002	163.602005	964.166016	-11.812500	66.088753	-7.420000
-61.366001	68.930000	1081.224976	-9.253125	81.746872	2.450000
-184.341995	108.153000	925.858032	-3.561250	57.413124	-1.938125
-229.604004	138.714005	832.406006	-2.563750	33.424999	-3.797500
-308.782013	108.702003	860.343994	-7.406875	14.170625	4.628750
-281.454010	81.923004	795.195984	-7.813750	21.091875	0.358750
-334.097015	78.812004	878.949036	-0.310625	35.310623	-5.635000
-278.221008	78.568001	864.004028	4.007500	31.031876	-11.173750
-258.457001	72.041000	886.147034	7.573125	34.474998	-11.068750
-341.173004	70.150002	839.848022	2.905000	32.007500	-11.261250
-331.291016	83.326004	842.837036	7.236250	18.549999	-2.073750
-423.950012	81.984001	907.375000	6.216875	27.334999	-3.985625
-406.503998	79.788002	835.151001	1.995000	24.972500	-0.638750
-459.147003	72.528999	866.444031	1.190000	14.249375	8.080625
-490.683990	60.695000	875.655029	-3.500000	9.721250	3.430000
-416.996002	50.569000	791.596985	-5.394375	8.820000	-0.070000
-512.888000	85.095001	873.337036	-3.955000	0.949375	-3.482500
-444.873016	86.132004	817.338989	-1.995000	-1.163750	-6.737500
-506.787994	78.750999	870.286987	-3.040625	2.983750	-2.585625
-539.606018	88.876999	875.411011	-5.149375	4.178125	-4.379375
-514.901001	112.911003	882.731018	-0.616875	-1.089375	-5.333125
-524.905029	57.401001	871.018982	1.496250	-1.408750	-2.222500
-540.460022	127.917000	917.684021	2.835000	-1.570625	3.723125
-538.507996	66.246002	940.070984	3.981250	-5.503750	4.641875
-521.000977	111.141998	950.867981	4.283125	-2.003750	1.960000
-533.445007	93.085999	948.062012	2.428125	3.535000	-1.181250
-492.209015	97.661003	930.250000	1.316875	0.004375	-0.669375
-473.787018	92.232002	908.595032	-0.861875	-0.013125	-2.891875
-440.237000	90.158005	900.665039	2.152500	3.066875	-6.435625
-450.606995	99.125000	875.777039	4.366250	0.975625	-7.083125
-482.753998	61.061001	871.934021	6.741875	3.836875	-6.986875
-496.417999	126.453003	877.606995	11.147500	3.290000	-6.934375
-424.864990	95.160004	784.093994	8.986250	8.938125	-14.166250
-428.464020	41.663002	756.827026	14.100625	17.709999	-11.313750
-482.937012	104.066002	826.733032	10.640000	8.636250	-8.028125
