A_X[mg]	A_Y[mg]	A_Z[mg]	G_X[dps]	G_Y[dps]	G_Z[dps]	
276.696014	120.779999	1086.166016	-0.476875	-2.183125	-3.513125
276.696014	134.322006	1091.838989	1.102500	-2.900625	-2.340625
284.442993	118.096001	1088.362061	-1.391250	-1.846250	-2.813125
285.480011	112.179001	1095.376953	-0.065625	1.601250	-2.266250
262.117004	125.293999	1094.339966	1.290625	-0.091875	-2.896250
303.902008	57.522999	1163.575073	2.891875	-2.463125	-4.178125
290.787018	25.132000	1258.552002	6.597500	-1.483125	1.343125
266.752991	-157.807007	1486.447998	12.026875	3.705625	10.841250
246.806000	-157.257996	1510.909058	15.828750	11.816875	16.082500
206.973007	-190.930008	1533.723022	9.511250	24.871876	29.924999
218.380005	-154.878998	1546.959961	11.917500	36.596874	47.731251
180.255005	-213.927002	1494.317017	9.734375	56.525002	58.638126
224.113998	-183.244003	1531.405029	20.916876	74.843124	50.365002
244.671005	7.381000	1363.105957	21.590626	83.317497	41.755001
271.084015	-67.404999	1337.546997	12.066250	82.333122	46.296249
268.644012	94.123001	1231.223999	1.728125	71.986252	45.906876
248.391998	85.217003	1164.734009	-7.258125	54.967499	57.575001
235.764999	222.162003	998.875000	-6.514375	55.046249	56.070000
111.020004	323.239014	928.968994	-25.939375	49.883751	59.123749
115.595001	372.649017	997.898987	-38.530624	31.504375	63.349998
46.421001	333.975006	910.059021	-34.041874	35.958126	52.031876
-4.880000	386.434998	907.802002	-30.716875	47.871250	41.383125
58.072002	353.921997	885.171021	-28.105000	20.973749	42.822498
-64.293999	265.654999	794.098022	-4.379375	17.084375	27.090000
-6.954000	305.183014	842.044006	-4.379375	5.153750	9.673125
-10.126000	296.032990	687.226013	-1.413125	5.153750	9.673125
-10.126000	296.032990	824.476013	5.862500	4.173750	3.937500
-221.369003	118.766998	824.476013	4.003125	14.135625	-11.016250
-138.775009	223.260010	801.356995	8.509375	1.806875	-3.898125
-170.311996	224.113998	865.101990	17.364374	-5.210625	8.137500
-154.940002	223.138000	961.421021	27.160000	0.415625	5.232500
-187.026001	254.613998	984.845032	20.365625	1.378125	9.191875
-179.766998	236.436005	1003.632996	8.710625	3.806250	6.540625
-253.943008	214.292999	1008.268982	4.655000	1.137500	-0.043750
-213.805008	198.128006	1060.484985	-5.350625	-3.469375	6.383125
-219.173004	184.830002	1077.992065	-2.712500	-7.236250	5.613125
-189.222000	171.471008	1121.424072	-0.358750	-10.290000	5.302500
-164.516998	195.139008	1111.114990	0.608125	-5.945625	3.653125
230.397003	242.352997	1057.008057	2.113125	-1.771875	2.734375
250.039001	239.119995	1066.463013	0.389375	-4.851875	3.080000
233.630005	236.070007	1093.119995	-0.455000	-3.290000	3.456250
220.087997	233.141998	1089.093994	-1.286250	-3.346875	2.703750
211.121002	221.125000	1087.630005	-2.546250	-2.887500	0.918750
207.522003	197.091003	1113.555054	-1.483125	-4.283125	-0.297500
188.977997	116.632004	1242.875000	2.253125	-9.467500	-3.010000
200.690002	65.879997	1393.362061	5.333125	-9.183125	0.901250
153.354004	-58.804001	1644.620972	11.060000	-2.629375	7.021875
127.185005	-88.694000	1647.122070	24.259375	9.887500	6.890625
216.184006	-22.143000	1681.708984	27.645624	10.775625	21.402500
281.393005	2.623000	1593.990967	23.988125	21.363125	32.720627
315.065002	84.362999	1474.065063	13.475000	38.451874	36.548752
362.584015	152.438995	1363.593994	1.491875	52.736252	34.601875
385.703003	190.259003	1221.952026	-11.431875	73.600624	32.042500
293.653992	206.302002	1076.100952	-16.384375	103.481873	30.533125
189.893005	239.242004	1098.427002	-17.570000	111.400627	38.981251
132.309006	284.626007	1015.710999	-18.799376	90.334999	46.095001
107.909004	215.513000	928.481018	-12.285000	45.985626	54.985001
171.897995	320.981995	879.986023	-8.837500	25.300625	55.343750
98.637001	356.911011	860.100037	-6.387500	31.386250	39.431873
82.349998	300.791016	838.200989	-10.863125	37.764999	39.103748
-6.405000	372.161011	875.533020	-10.224375	35.533749	24.946251
-100.405998	346.541016	866.382996	-17.045000	50.715000	30.065001
-44.347000	366.304993	874.191040	-15.728125	32.983124	29.610001
-147.925003	305.122009	863.942993	-5.171250	19.700624	17.460625
-148.229996	324.337006	866.687988	3.080000	17.714375	4.589375
-205.020996	381.615997	774.333984	9.926875	8.063125	4.733750
-180.865005	313.845001	869.372009	4.099375	-2.012500	14.306250
-191.113007	343.552002	848.632019	3.338125	4.410000	11.003125
-212.097000	319.213013	881.450012	5.346250	18.445000	7.371875
-218.441010	296.765015	882.669983	3.272500	10.320625	0.752500
-273.707001	286.761017	955.504028	-3.040625	1.693125	4.961250
-286.944000	275.415009	980.697021	-5.355000	-0.616875	3.762500
-296.154999	253.820999	1042.245972	-1.540000	-3.705625	2.756250
-270.412994	249.856003	1082.932983	-3.395000	-8.868125	1.693125
-244.488007	249.490005	1080.920044	-1.841875	-12.219375	2.161250
-211.914001	228.750000	1082.628052	-2.183125	-10.727500	1.925000
153.537003	252.845001	1065.730957	-2.874375	10.167500	0.354375
217.647995	258.822998	1064.083984	-0.708750	2.913750	3.163125
201.666000	248.819000	1060.057983	-0.831250	2.493750	2.896250
215.208008	252.479004	1087.385986	-2.419375	-0.358750	1.588125
247.050003	243.938995	1095.743042	-3.622500	-0.288750	0.437500
226.676010	239.729996	1093.729980	-1.456875	5.158125	0.021875
221.917999	218.441010	1124.108032	-0.949375	3.670625	-0.665000
197.212997	184.220001	1217.682007	2.900625	-0.796250	0.927500
132.979996	68.137001	1378.051025	3.701250	1.999375	5.210625
153.171005	-20.679001	1567.029053	12.980625	1.583750	11.952500
57.827999	-68.197998	1542.873047	20.365625	4.370625	19.232500
141.581009	-12.627000	1580.327026	26.075001	13.518750	21.048124
211.242996	-8.967000	1507.493042	19.490625	24.473749	26.823126
252.723007	9.699000	1382.625977	14.223125	31.110624	34.334999
295.727997	142.800995	1357.188965	8.522500	42.070000	26.009375
239.181000	290.542999	1268.739014	-5.263125	44.944374	24.482500
349.774017	290.847992	1272.276978	-14.498750	51.712502	25.235001
345.382019	342.149017	1105.503052	-9.345000	88.226250	34.781250
300.973999	342.697998	1130.390991	-13.387500	86.515625	34.991249
216.854996	431.636017	904.934998	-28.616875	99.080627	28.542500
48.312000	389.240997	910.669006	-42.253750	105.144379	31.622499
-94.916000	356.118011	928.846985	-37.174374	75.845001	31.583124
-44.834999	347.151001	902.983032	-25.073126	42.131248	30.419374
-53.741001	277.367004	907.741028	-9.126250	8.920625	27.348125
-98.942001	335.622009	866.260986	-7.288750	11.795000	24.718750
-8.784000	334.036011	898.286011	-7.717500	23.270624	25.484375
-83.264999	227.591003	848.265991	-3.543750	40.263126	22.032499
-128.343994	298.717010	850.278992	-2.948750	28.822500	10.478125
-186.843002	275.781006	804.346008	0.533750	24.049376	15.942500
-229.908997	257.298004	792.572998	3.036250	19.416250	18.291876
-296.093994	249.794998	848.815002	-1.133125	5.936875	13.510000
-284.503998	257.481018	858.330994	-2.695000	-0.949375	17.605000
-282.917999	300.973999	955.199036	2.314375	-9.445625	8.474375
-261.628998	313.662018	952.820007	2.471875	-8.225000	2.830625
-277.428009	306.158997	962.945984	4.261250	-1.688750	1.378125
-270.046997	272.425995	1000.705017	1.780625	-2.384375	0.214375
-267.302002	284.015991	1007.049011	-3.250625	-6.444375	-4.676875
-283.772003	256.505005	1044.503052	-2.791250	-7.568750	-0.301875
241.011002	33.977001	1061.704956	9.349375	-3.066875	-3.788750
216.611008	9.211000	1137.771973	7.240625	-6.514375	2.725625
254.553009	10.736000	1128.072998	2.253125	-10.539375	2.248750
295.606018	-17.812000	1153.875977	-0.183750	-4.151875	2.979375
252.479004	-53.924000	1145.152954	-0.778750	4.208750	3.281250
239.913010	-82.044998	1196.393066	1.141875	1.968750	4.685625
262.726990	-134.992996	1247.999023	2.283750	-0.227500	7.791875
259.738007	-205.997009	1384.822021	10.360000	8.719375	14.192500
198.005997	-268.399994	1462.170044	6.466250	10.863125	32.466873
164.212006	-409.798004	1544.093018	0.210000	1.531250	47.385624
229.908997	-492.880005	1563.613037	-1.846250	19.604376	48.496876
279.075012	-385.276001	1451.067993	24.648750	30.415001	69.724373
218.867996	-178.059006	1482.910034	31.329374	59.438751	88.086250
187.514008	-161.528000	1393.178955	15.925000	64.242500	83.396248
228.750000	-24.400000	1207.921997	16.983749	64.159378	78.986252
209.229996	-10.004000	1286.978027	12.954375	70.175003	68.044373
278.464996	105.224998	1075.125000	2.625000	59.119373	56.306252
195.139008	8.174000	1087.874023	-18.519375	55.855625	38.530624
187.209000	193.369995	1096.841064	0.087500	53.283127	8.763125
247.538010	239.486008	888.221008	-16.791250	54.201874	0.980000
123.585999	180.987000	1045.174072	-30.979376	49.542500	18.291876
-14.152000	312.869019	902.556030	-24.093124	53.147499	0.625625
-100.710999	97.966003	844.911011	-16.957500	36.386875	6.868750
-128.039001	255.102005	995.398010	-4.366250	-10.316250	9.253125
-102.906998	136.091003	718.763000	0.196875	2.852500	11.532500
-122.487999	158.417007	768.905029	-9.082500	42.818127	28.122499
-181.352997	127.856003	790.132996	-19.538750	14.910000	46.628750
-211.792007	115.229004	831.918030	-20.138124	-2.100000	39.029373
-198.615997	150.975006	905.484009	-18.291876	-20.440001	29.443750
-152.012009	115.655998	945.561035	-21.647499	-15.846250	17.088751
-237.595001	100.040001	1007.720032	-11.497500	-5.840625	4.865000
-209.839996	8.540000	1023.945984	-8.194375	-6.466250	8.513750
-256.932007	14.457000	1046.577026	1.863750	-6.750625	3.425625
-219.904999	16.531000	1034.010986	10.093125	-5.350625	2.708125
-230.275009	5.063000	1053.165039	10.093125	-5.350625	6.545000
-230.275009	0.854000	1085.921997	8.553125	-3.263750	6.545000
-220.880997	0.854000	1085.921997	2.926875	-7.210000	4.064375
-219.112000	-4.636000	1097.390015	3.985625	-3.031875	0.542500
270.778992	-68.502998	1140.516968	-0.551250	-2.874375	-6.741875
249.307007	-57.462002	1122.277954	1.439375	0.048125	-4.773125
252.845001	-27.938000	1125.999023	3.780000	-2.156875	0.796250
282.429993	-43.554001	1122.156006	4.348750	-1.028125	1.754375
288.468994	-13.176001	1115.385010	7.433125	3.053750	2.283750
291.274994	-39.101002	1162.416016	6.352500	0.888125	4.130000
306.220001	-131.882004	1237.323975	9.253125	-0.853125	5.258750
282.613007	-232.714996	1398.912964	9.918125	2.226875	9.590000
224.906998	-382.408997	1479.311035	23.117500	15.649375	15.172500
255.223999	-318.664001	1501.270996	29.277500	19.324375	28.087500
308.598999	-330.437012	1424.349976	33.810001	12.088125	43.898750
318.237000	-286.455994	1367.437012	43.001877	18.860624	44.795624
344.772003	-181.292007	1322.235962	39.926250	27.238750	38.696877
389.424011	-57.706001	1282.402954	40.538750	42.507500	36.373749
345.260010	63.440002	1268.556030	15.417500	40.556252	36.491875
403.332001	242.109009	1215.181030	2.988125	40.634998	35.271252
382.287018	247.964996	1196.088013	-24.565624	50.815624	40.411877
393.205994	261.812012	1143.688965	-31.228750	67.410004	39.130001
191.173996	193.065002	1047.004028	-21.284374	87.486877	37.568127
209.108002	241.682007	1070.000977	-10.386250	75.210625	41.973751
151.707001	318.786011	941.840027	-23.270624	56.231876	49.227501
38.552002	195.444000	1000.033997	-22.518126	56.244999	59.342499
65.026001	220.820007	854.915039	-13.597500	53.274376	48.173126
-56.242001	232.044006	829.416992	-22.308125	45.106251	40.057499
-128.649002	210.511002	814.593994	-20.790001	30.646875	37.419376
-143.837997	206.302002	822.585022	-10.692500	16.913750	18.891251
-197.091003	223.016006	793.000000	-3.950625	19.092501	6.720000
-102.846001	239.119995	827.830994	-7.315000	22.426250	-2.327500
-256.444000	185.134995	841.556030	-11.694375	15.089375	0.336875
-214.598007	213.622009	859.916992	-7.271250	3.828125	8.461250
-260.958008	75.517998	962.640991	-8.181250	-2.747500	13.190625
-231.556000	90.158005	953.369019	-2.248750	0.962500	7.656250
-270.291016	44.042000	1042.612061	-0.017500	-5.884375	5.753125
-234.789001	31.781000	1026.751953	2.966250	-6.706875	1.439375
-238.266006	51.300999	1076.100952	1.693125	-5.324375	-3.246250
-211.304001	44.103001	1073.722046	0.520625	-2.931250	-3.014375
-221.125000	48.617001	1081.713013	0.835625	-2.970625	-3.898125
-223.503998	28.304001	1085.860962	0.323750	-8.106875	-4.423125
276.390991	108.275002	1118.739990	2.633750	0.091875	1.163750
269.803009	126.575005	1101.050049	4.011875	4.068750	2.848125
266.325989	107.360001	1103.001953	1.933750	1.470000	2.336250
265.472015	134.444000	1086.531982	1.929375	2.454375	1.789375
244.792999	126.209000	1094.645020	-1.522500	-0.284375	0.678125
247.354996	105.896004	1098.549072	-0.590625	1.281875	-0.301875
238.083008	24.521999	1243.729004	1.172500	1.671250	-0.555625
215.391006	-85.522003	1424.472046	-0.192500	-6.426875	3.259375
211.425995	-132.613998	1506.516968	10.281250	1.588125	15.645000
220.637009	-243.024002	1546.166992	14.656250	5.088125	30.712500
265.472015	-199.958008	1528.660034	26.350624	22.806875	42.192501
251.197998	-29.889999	1391.410034	22.168125	29.413124	42.647499
257.847015	35.685001	1327.969971	10.801875	41.947498	35.083126
322.446014	83.204002	1324.066040	3.325000	56.109375	29.378124
271.450012	50.874001	1239.214966	-3.180625	52.368752	32.536877
413.885010	47.945999	1296.128052	-10.298750	54.722500	25.917500
410.529999	137.615997	1207.250977	-15.785000	56.363125	22.605625
360.388000	102.723999	1192.794067	-16.235624	54.569374	26.893126
290.665009	270.351990	1105.015015	-24.237499	41.234375	31.386250
201.727005	218.867996	1028.093994	-21.376249	37.056252	34.422501
53.008999	307.806000	988.017029	-26.595625	53.869373	10.622500
0.061000	339.403992	919.087036	-34.055000	65.340622	5.932500
-12.810000	269.558990	926.528992	-36.675625	70.179375	15.671250
-149.266998	251.563995	845.216003	-31.491249	57.548752	26.464375
-77.348000	181.231003	912.987000	-22.675625	33.324375	35.231876
-81.618004	220.149002	786.900024	-0.507500	30.135000	24.959375
-80.641998	204.716003	796.965027	10.298750	31.473749	18.204374
-184.037003	163.541000	805.871033	11.121250	27.409374	14.008750
-221.490997	156.343002	814.533020	7.161875	19.788124	12.031250
-219.600006	151.768005	871.140991	2.743125	9.318750	7.861875
-240.401001	153.231995	862.234985	1.050000	6.702500	2.555000
-282.735016	160.979004	890.478027	-4.956875	5.079375	0.122500
-334.218994	74.359001	942.755005	-5.215000	-5.188750	5.770625
-311.161011	69.052002	989.054016	-8.391250	-11.256875	4.536875
-320.799011	54.778000	1016.382019	-2.454375	-13.658750	3.110625
-257.420013	33.489002	1066.097046	-1.780625	-28.070000	5.516875
-227.164001	48.922001	1130.146973	-3.893750	-28.498751	4.038125
-201.178009	59.779999	1113.982056	1.960000	-12.035625	2.751875
183.792999	-1.464000	1082.445068	15.946875	-23.086876	12.210625
215.818008	-4.636000	1088.301025	6.383125	-12.468750	10.307500
205.387009	-44.591000	1107.577026	-0.503125	-11.935000	7.227500
203.740005	-106.627998	1155.096069	2.931250	-12.670000	2.594375
210.145004	-52.399002	1173.213013	2.401875	-10.040625	-0.297500
248.331009	-156.221008	1291.308960	6.356875	-1.470000	-1.098125
179.401001	-202.154007	1460.339966	10.994375	4.186875	-2.366875
189.953995	-209.779007	1568.432007	11.935000	17.281250	15.732500
153.658997	-319.518005	1524.024048	23.660000	29.601250	39.935001
111.691002	-257.298004	1486.020996	21.459375	23.799999	58.953125
97.599998	-282.002991	1465.463989	29.631874	26.429375	64.964378
277.916016	-226.005005	1404.829956	51.852501	32.239376	46.703125
146.095001	12.261000	1316.197021	51.546249	40.836250	23.887501
221.673996	88.328003	1214.083008	22.662500	53.742500	16.384375
212.951004	127.306999	1069.573975	2.607500	51.331875	12.950000
167.750000	153.110001	1124.291016	-18.287500	41.951874	32.195625
216.854996	252.600998	1054.506958	-35.139999	38.517502	29.496250
66.551003	247.294006	970.692993	-30.231251	38.136875	19.985001
63.074001	234.117996	1069.635010	-29.001875	37.520000	12.770625
71.918999	254.796997	920.062988	-20.085625	51.025623	10.014375
-24.156000	266.692017	1005.096985	-41.702499	56.323750	30.773750
-87.718002	262.666016	975.145996	-57.505001	51.992500	37.375626
-195.199997	128.527008	902.861023	-56.389374	42.196877	48.645626
-68.014999	66.734001	979.171997	-45.390625	25.926250	37.760624
-164.944000	49.166000	897.309998	-18.186874	37.786877	30.957500
-157.074997	125.172005	879.254028	-3.631250	49.564377	30.743126
-230.518997	23.363001	933.239014	-0.656250	28.336876	25.121250
-212.402008	137.921005	896.151001	12.442500	10.941875	28.284374
-158.783005	73.444000	968.009033	13.496875	2.975000	21.398125
-170.251007	72.223999	963.434021	22.137501	9.016875	-0.161875
-291.824005	134.078003	947.208008	18.703125	13.072500	-7.840000
-285.175018	90.951004	963.067993	8.618750	10.014375	3.228750
-302.437988	108.397003	965.142029	6.965000	3.486875	-4.624375
-315.980011	80.153999	941.046997	-0.262500	7.437500	-2.384375
-358.619019	37.514999	989.054016	-0.931875	3.955000	-5.534375
-363.316010	44.225002	1016.138000	2.104375	-7.647500	-12.201875
-395.890015	86.498001	1030.411987	-2.581250	-6.737500	-3.259375
-385.032013	24.278000	1075.430054	1.461250	-8.776250	-1.251250
199.897003	73.566002	1096.414062	-0.848750	0.227500	2.572500
179.339996	57.340000	1119.899048	0.091875	0.122500	6.370000
167.078995	62.646999	1104.099976	1.592500	-0.091875	4.751250
151.279999	64.538002	1157.474976	2.660000	3.771250	5.525625
160.369003	40.931000	1178.458984	3.268125	1.483125	5.105625
141.520004	56.973999	1154.058960	3.666250	7.017500	6.300000
91.622002	-8.906000	1311.195068	1.649375	8.483125	11.742500
91.377998	-112.179001	1419.836060	-0.616875	2.572500	15.627500
36.539001	-233.081009	1557.452026	3.421250	10.889375	24.360001
16.469999	-242.231003	1554.280029	17.828125	25.217501	28.004375
51.667000	-183.731995	1513.104980	14.568750	22.343124	39.130001
42.395000	-170.800003	1431.182007	22.697500	16.025625	45.605000
80.825005	-30.012001	1377.928955	21.131250	19.543125	29.504999
94.306000	75.274002	1367.192993	3.119375	11.396875	24.281250
264.862000	102.236000	1278.987061	-0.083125	11.445000	34.986874
258.579010	147.376007	1190.171021	4.379375	33.341873	32.449375
263.580994	226.432007	1169.187012	-0.341250	48.396252	28.525000
164.029007	286.089996	1013.210022	-9.555000	70.599373	22.863750
158.783005	264.679016	1070.306030	-9.493750	82.131874	18.720625
81.618004	278.282013	937.509033	-15.220625	77.048126	24.093124
-52.033001	238.205002	896.639038	-16.423750	72.485001	21.778749
15.555000	262.605011	871.263000	-6.492500	54.293751	27.203751
-108.458000	178.181000	880.778992	0.896875	40.424999	31.119375
-92.475998	249.794998	855.525024	7.975625	31.193750	25.125626
-27.145000	276.330017	828.684998	8.054375	24.928749	18.514999
-185.074005	237.107010	787.205017	7.367500	32.506248	14.770000
-161.589005	281.332001	849.364014	1.995000	19.792500	8.964375
-240.096008	241.621002	857.476990	-4.567500	11.615625	8.430625
-254.613998	233.081009	879.559021	-7.927500	9.651250	11.011875
-268.033997	260.226013	852.353027	-10.504375	4.904375	9.988125
-309.087006	235.764999	880.473999	-8.448125	7.468125	12.775000
-286.639008	241.865005	899.689026	-6.978125	4.226250	8.570625
-365.268005	195.688004	949.953003	-7.809375	0.306250	7.183750
-291.213989	213.378006	993.202026	-15.330000	0.691250	9.428125
-365.695007	165.309998	1045.357056	-14.004375	1.360625	9.646875
-325.923004	145.423996	1087.020020	-7.848750	-8.308125	7.533750
-314.272003	130.783997	1102.880005	-3.850000	-9.970625	4.952500
-311.770996	121.939003	1089.338013	-3.150000	-2.528750	1.356250
169.458008	88.145004	1160.281006	0.577500	3.171875	-6.654375
164.395004	102.480003	1127.036011	3.088750	6.352500	-2.323125
183.671005	77.897003	1127.036011	1.430625	6.181875	0.586250
160.979004	85.460999	1111.176025	2.358125	6.798750	3.430000
146.522003	57.157001	1134.416992	1.575000	3.898125	4.011875
109.738998	-38.063999	1272.703979	4.410000	0.376250	5.656875
66.063004	-103.456001	1445.883057	12.346250	-0.936250	8.255625
35.380001	-232.471008	1554.157959	7.214375	2.690625	13.339375
33.184002	-295.484009	1623.515015	22.391251	11.641875	26.424999
79.178001	-253.638000	1563.979004	32.217499	29.793751	35.686874
133.041000	-178.973999	1507.859009	34.973751	40.766251	41.693748
77.775002	-35.563000	1391.714966	27.129375	47.827499	42.319374
107.604004	50.813000	1256.539062	4.895625	34.763748	32.904373
158.660995	186.904007	1324.005005	-10.421250	10.150000	36.736874
257.725006	250.832001	1185.962036	-8.697500	25.987499	39.908749
266.386993	294.386017	1105.807983	-12.096875	49.249374	25.331249
263.886017	351.481995	1101.660034	-32.099377	69.221252	25.641874
200.568008	253.760010	1048.162964	-28.774376	95.497498	27.667500
36.417000	229.665009	1006.195007	-28.774376	97.881874	27.291250
14.823000	277.183990	976.609985	-18.309376	97.881874	27.291250
14.823000	277.183990	926.833984	-18.969999	70.621246	23.323126
-168.421005	189.404999	926.833984	-14.678125	50.233749	32.396873
-68.990997	171.531998	848.510010	-10.994375	25.729376	22.176874
-259.981995	187.757996	826.733032	-6.951875	24.858749	13.838125
-128.039001	225.151001	859.246033	-14.415625	30.799999	27.715626
-145.180008	277.610992	904.507996	-22.623125	24.622499	26.674376
-170.251007	255.041000	933.910034	-17.561251	21.402500	23.051874
-110.776001	249.307007	893.345032	-6.938750	22.999374	12.495000
-227.469009	224.053009	837.591003	-0.411250	32.742500	4.716250
-263.276001	227.225006	835.455994	-5.700625	29.911875	1.286250
-380.701019	177.876007	804.712036	-6.413750	20.711250	4.961250
-357.277008	133.102005	830.332031	-5.691875	9.773750	6.790000
-419.436005	113.947998	871.018982	-4.025000	2.900625	0.048125
-389.912018	131.272003	884.866028	-0.717500	-3.377500	0.214375
-411.933014	80.764000	982.161011	-6.501250	-15.334375	3.793125
-411.384003	81.862000	1003.267029	-5.442500	-18.042500	3.946250
-374.967010	78.323997	1064.328003	-1.898750	-18.252501	1.085000
-369.233002	72.834000	1075.186035	-3.526250	-16.034374	1.785000
196.115005	-34.770000	1131.489014	3.618125	-4.882500	-4.453750
198.921005	-25.559000	1126.914062	4.016250	-3.679375	-1.833125
205.264999	-39.406002	1118.191040	3.745000	-3.679375	0.726250
204.716003	-22.691999	1109.651001	3.819375	-4.528125	3.136875
210.876999	-46.421001	1118.922974	2.970625	-1.159375	3.731875
203.923004	-73.139000	1194.135986	2.922500	-2.275000	3.342500
201.666000	-131.820999	1299.177979	3.045000	-6.028750	3.338125
237.716995	-303.657990	1502.186035	5.919375	-7.914375	7.927500
181.109009	-307.562012	1471.563965	7.288750	-18.628750	19.757500
205.997009	-415.532013	1567.760986	12.556250	-17.193750	26.586876
272.609009	-408.273010	1545.557007	31.727501	-19.420626	24.123751
294.080994	-233.813004	1387.628052	46.200001	-1.483125	12.775000
378.261017	-163.296997	1376.098999	49.100624	30.283751	4.007500
397.658997	33.916000	1277.035034	41.151249	34.615002	15.723750
394.670013	67.892998	1111.724976	26.276251	53.445000	20.864374
370.941010	142.984009	1087.081055	12.516875	78.588127	22.299376
249.124008	186.050003	1085.433960	-5.534375	90.370003	21.752501
262.787994	174.643005	1122.338989	-17.141251	101.246246	18.427500
135.785995	280.966003	930.981995	-34.321877	94.683746	24.806250
-32.818001	207.826996	983.625000	-41.343750	80.031876	30.344999
-18.422001	186.598999	957.760986	-43.098125	69.518753	28.634375
-59.353001	218.501999	902.617004	-44.563751	47.166874	33.219376
-132.065002	127.794998	891.880981	-35.209999	27.584375	27.693750
-175.497009	142.862000	855.647034	-25.151875	18.073126	8.496250
-221.673996	212.951004	849.546997	-15.229375	11.466875	6.816250
-243.451004	128.893005	847.046021	-9.576875	1.575000	12.652500
-274.134003	149.389008	919.270020	-14.756875	0.756875	21.494375
-217.953003	248.209000	923.234985	-9.817500	7.393750	33.473125
-236.070007	149.266998	923.783997	-1.295000	14.616875	28.459375
-229.665009	212.889999	862.296021	-1.028125	13.216875	13.055000
-331.291016	123.037003	921.100037	0.363125	14.634375	9.677500
-284.381989	111.081001	874.374023	-3.276875	8.505000	7.192500
-280.050995	99.735001	924.699036	-7.026250	-3.876250	-0.061250
-317.871002	72.895004	981.367981	-5.932500	-7.748125	1.592500
-299.205017	-1.403000	1003.023010	-4.650625	-3.202500	-1.544375
-331.839996	-26.901001	1073.172974	-4.147500	-9.196250	-1.610000
-284.748016	6.222000	1089.093994	1.334375	-11.921875	-1.509375
-297.985016	-11.712000	1089.947998	2.152500	-6.514375	-2.078125
318.054016	36.783001	1112.274048	-6.059375	-6.186250	-7.735000
289.933014	50.630001	1120.875000	-4.375000	-4.410000	-3.360000
304.877991	16.226000	1155.035034	-3.115000	-4.003125	0.914375
269.131989	-39.955002	1175.286987	-1.299375	2.848125	4.169375
266.447998	-79.971001	1253.794067	1.522500	5.175625	5.350625
280.112000	-132.553009	1357.005981	-1.391250	6.076875	10.150000
215.695999	-283.710999	1786.446045	-0.673750	4.326875	15.881250
335.500000	-372.404999	1815.969971	17.871876	9.861250	-7.927500
466.345001	-262.787994	1556.171021	41.514374	21.730625	13.978125
359.899994	-121.146004	1261.235962	51.992500	48.238750	35.743752
320.433014	-62.952000	1200.968018	44.594376	91.673752	54.420624
234.789001	-9.089000	1167.784058	25.961250	104.492500	68.184372
65.514000	121.695000	1185.779053	1.946875	89.236877	74.991875
75.517998	102.358002	1091.046021	-33.735626	51.082500	67.991875
152.500000	98.820000	1081.713013	-46.484375	29.846251	59.718750
156.464996	13.847000	1106.723022	-27.790001	34.111874	56.643124
210.022995	235.764999	1007.415039	-2.550625	32.217499	33.845001
131.393997	338.610992	968.252991	20.991249	27.781250	29.693125
120.597000	133.468002	911.156982	33.823124	24.180626	34.173126
60.756001	333.914001	883.828979	18.738125	26.070625	3.574375
-65.514000	278.953003	817.522034	-18.510626	26.368126	-12.446875
-124.988998	297.497009	883.463013	-38.959373	30.401875	-20.470625
-157.380005	237.533997	863.638000	-53.081875	27.068125	-10.924375
-163.296997	183.915009	989.176025	-56.196877	14.682500	5.477500
-124.135002	186.721008	936.777039	-47.722500	6.833750	26.451250
-14.396000	76.860001	960.079041	-31.613750	11.287500	27.833750
-123.708000	120.048004	959.041992	-17.749374	9.861250	22.706249
-75.029999	72.346001	966.666992	-5.635000	16.244375	17.600624
-140.056000	144.936005	943.853027	3.924375	15.610000	4.624375
-217.647995	129.563995	948.976990	9.996875	11.055625	-0.358750
-294.019989	86.193001	963.067993	8.391250	11.515000	1.439375
-334.829010	51.118000	951.416992	3.819375	9.594375	2.493750
-327.631012	70.455002	1018.028992	-0.538125	-0.630000	0.336875
-286.089996	30.927000	1026.081055	-0.476875	-6.072500	-0.761250
-263.214996	28.670000	1072.380005	-3.373125	-13.794375	-0.560000
-233.020004	38.368999	1083.115967	-5.131875	-14.713125	4.256875
-185.440002	6.588000	1089.886963	-3.701250	-14.993125	4.165000
-153.110001	28.487000	1051.945068	-2.043125	-10.933125	-0.813750
367.403015	67.222000	1065.120972	4.510625	0.800625	-2.585625
356.911011	65.391998	1064.572021	2.585625	0.459375	0.004375
358.679993	88.876999	1065.182007	0.096250	-0.275625	-0.048125
359.290009	70.882004	1071.464966	0.363125	1.286250	1.513750
379.847015	64.843002	1129.719971	2.349375	1.452500	2.673125
395.890015	-48.922001	1316.868042	2.380000	2.012500	3.675000
442.981995	-257.481018	1527.623047	15.347500	3.320625	-0.901250
358.740997	-198.128006	1539.884033	31.692499	-2.121875	7.236250
357.825989	-372.832001	1608.265015	45.784374	-12.880000	4.598125
496.052002	-75.091003	1481.446045	58.878750	-18.584999	2.423750
501.602997	-31.720001	1346.331055	50.754375	15.172500	11.593750
513.742004	119.926003	1322.419067	7.870625	49.293125	25.200001
560.955994	160.003006	1261.479980	-42.061249	70.647499	38.941875
359.778015	28.243000	1287.709961	-48.772499	99.763123	58.485001
482.510010	52.277000	1190.232056	-41.195000	106.933746	55.632500
294.264008	201.971008	1175.958008	-26.661249	87.259377	44.305626
361.425018	174.764999	1022.970032	-22.207500	81.462502	30.878750
291.031006	277.001007	978.684021	-24.456249	76.702499	34.930000
179.706009	219.294998	892.247009	-24.408125	62.553749	39.685623
67.466003	187.636002	814.471985	-23.349375	62.216873	35.529373
-10.126000	204.716003	874.007996	-23.349375	53.208752	34.173126
-115.960999	118.523003	816.119019	-11.620000	53.208752	34.173126
-115.960999	118.523003	777.445007	6.615000	36.614376	21.463751
-116.632004	215.878998	777.445007	10.911250	20.903749	9.944375
-137.677002	176.716995	811.971008	5.888750	-1.658125	13.947500
-89.304001	136.701004	832.833008	3.793125	-3.972500	10.478125
-31.354000	208.803009	933.117004	2.712500	5.836250	9.200625
-29.280001	156.891998	922.502991	3.880625	9.135000	7.345625
-117.425003	167.750000	941.901001	-0.975625	14.958125	-3.736250
-142.679001	181.292007	914.817017	-2.471875	22.295000	-5.963125
-176.412003	140.361008	943.669983	-9.196250	15.649375	-0.358750
-207.156006	125.781998	957.822021	-14.870625	8.509375	1.268750
-217.587006	88.023003	1013.759033	-10.154375	2.638125	5.271875
-223.076996	32.025002	1046.027954	-3.906875	-5.376875	-1.509375
-240.949997	36.050999	1093.973999	-1.421875	-5.341875	-0.249375
-203.191010	21.228001	1115.750977	-2.021250	-8.588125	1.443750
-203.007996	4.758000	1118.251953	0.153125	-6.378750	-0.223125
-190.076004	20.130001	1115.812012	0.713125	-2.905000	-2.069375
440.359009	6.832000	1085.800049	-1.697500	1.662500	-8.575000
424.316010	42.395000	1078.296997	5.670000	3.727500	-6.426875
400.587006	24.888000	1076.650024	2.918125	0.612500	-1.649375
402.112000	1.891000	1085.373047	1.863750	-0.266875	0.017500
410.834991	-11.712000	1155.156982	4.112500	2.222500	3.526250
424.071991	-84.485001	1195.782959	8.172500	4.961250	8.710625
350.933014	-142.679001	1316.014038	7.704375	11.230625	10.749375
436.089020	-177.998001	1416.968994	9.699375	20.562500	15.308125
396.195007	-160.063995	1442.588989	2.839375	31.937500	27.916876
426.390015	-221.186005	1518.534058	2.060625	40.534374	37.979374
397.963989	-149.632996	1469.734009	-4.974375	54.197498	44.139374
348.554016	-167.628006	1380.369019	-10.946250	58.165627	55.439999
265.472015	-137.981995	1211.459961	-14.245000	59.933125	54.110001
267.179993	-25.071001	1369.755005	-9.511250	55.470627	65.865623
280.112000	-144.875000	1246.962036	-5.184375	43.356251	70.157501
298.351013	-109.738998	1221.646973	-13.238750	39.466873	62.343750
375.882019	-3.050000	1188.645996	-5.560625	50.089375	50.859375
245.647003	-55.937000	1076.527954	-15.286250	61.464375	51.668751
206.119003	23.302000	1020.468994	-12.490625	56.196877	47.210625
81.496002	57.096001	1055.848999	-4.506250	53.116875	41.313126
110.531998	94.976997	976.731995	5.302500	69.846878	29.251249
102.053001	219.112000	874.191040	7.695625	57.802502	11.694375
-15.433001	321.165009	881.632996	-7.376250	39.764374	15.535625
26.962000	270.351990	766.098999	-5.709375	31.771250	10.605000
-137.311005	224.846008	725.595032	-1.351875	23.261875	-12.543125
-167.384003	194.712006	749.507019	3.836875	4.576250	-4.843125
-166.042007	122.061005	820.145020	7.393750	-8.627500	0.262500
-141.581009	179.339996	833.138000	4.003125	-14.656250	-10.950625
-166.102997	150.425995	924.028015	-4.585000	-9.555000	0.875000
-164.944000	130.052002	940.132019	-2.620625	-6.475000	9.546250
-167.505997	26.047001	985.638000	-6.068125	0.148750	13.833750
-188.307007	54.167999	974.963013	-10.981250	1.911875	14.013125
-191.296005	-50.325001	1025.104980	-11.493125	-11.458125	5.608750
-182.572998	-21.350000	1038.098022	-7.490000	-12.836250	3.145625
-176.229004	-59.109001	1070.183960	-2.887500	-10.766875	3.596250
-157.990005	-49.410000	1114.469971	4.466875	-12.919375	0.717500
-132.796997	-43.980999	1113.250000	5.311250	-14.070000	-1.745625
-89.059998	-5.429000	1096.901978	3.158750	-11.305000	-7.026250
392.351990	90.646004	1130.086060	5.118750	1.032500	4.248125
394.182007	36.660999	1217.682007	2.992500	5.009375	3.062500
407.846008	25.559000	1251.902954	5.516875	8.601250	1.693125
372.100006	-44.103001	1340.657959	3.854375	10.298750	3.255000
440.847015	-26.718000	1335.351074	13.457500	17.688126	2.349375
395.768005	47.580002	1380.552002	13.798750	26.643749	3.320625
437.980011	-8.601000	1463.572998	4.195625	17.259375	8.382500
449.570007	-41.602001	1410.136963	14.940625	27.776875	5.866875
427.061005	38.735001	1381.406006	13.365625	32.689999	6.934375
474.946014	66.246002	1381.406006	11.974375	35.100624	15.728125
442.127991	83.570000	1279.963013	2.397500	57.509377	12.696250
460.001007	170.128998	1261.968018	16.458750	80.548126	13.129375
305.244019	203.313004	1147.348999	18.195625	86.891876	34.160000
291.580017	242.352997	1050.907959	1.198750	87.263748	30.021250
155.488998	216.367004	1040.964966	10.718750	85.163750	28.818125
108.823997	363.621002	1049.870972	16.135000	77.861877	40.761875
142.130005	381.006012	908.046021	12.726875	82.425003	35.192501
64.171997	497.942993	850.523010	-13.155625	70.892502	22.347500
-25.802999	422.119995	731.085022	-35.525002	39.847500	15.548750
-132.248001	329.644012	804.712036	-61.639374	19.490625	3.644375
-44.408001	411.079010	781.593018	-51.568127	4.510625	17.941875
-38.491001	272.670013	760.121033	-35.376251	7.796250	19.210625
-101.382004	235.399002	788.486023	-25.908751	7.529375	19.495001
-25.132000	261.933990	787.754028	-21.052500	12.696250	26.683125
-157.563004	110.227005	843.203003	-13.300000	27.733126	29.688749
-98.820000	198.372009	840.945984	-2.528750	34.685001	30.485001
-143.960007	90.889999	892.369019	-1.325625	21.586250	19.836250
-217.464996	148.229996	957.028992	-3.014375	12.298125	15.120000
-242.719009	98.942001	1014.552002	-11.943750	12.477500	9.143750
-353.800018	33.672001	1044.563965	-10.600625	7.923125	-0.078750
-297.070007	84.850998	1093.425049	-7.883750	-5.744375	7.446250
-295.239990	39.284000	1100.623047	-7.498750	-10.609375	7.153125
-253.393997	69.784004	1093.912964	-1.071875	-3.928750	9.489375
-207.156006	49.776001	1093.973999	-2.445625	-5.862500	9.765000
-217.221008	86.681000	1099.159058	-0.962500	-2.327500	6.020000
-197.212997	93.147003	1059.630981	-0.695625	3.981250	3.968125
-265.899017	69.235001	1077.015991	-0.783125	5.805625	5.582500
-245.647003	103.516998	1079.760986	0.341250	1.540000	4.628750
319.518005	-18.666000	1084.275024	5.840625	-3.167500	2.800000
328.485016	-2.806000	1111.786011	7.013125	-2.380000	4.650625
335.561005	-3.416000	1106.113037	4.593750	-1.155000	3.583125
343.247009	3.721000	1110.383057	4.978750	-0.288750	4.431875
349.468994	-16.958000	1109.956055	4.851875	1.671250	3.141250
352.640991	-41.418999	1181.875000	8.544375	3.416875	4.926250
329.338989	-184.585999	1330.227051	19.932501	5.473125	6.448750
331.718018	-267.179993	1504.931030	31.613750	1.483125	12.586875
327.813995	-417.300995	1522.926025	41.033127	7.787500	24.626875
366.915009	-365.695007	1468.941040	48.264999	6.457500	31.298750
369.355011	-256.200012	1443.077026	38.946251	8.373750	35.735001
347.639008	-149.084000	1422.885986	20.715626	18.077499	29.474375
366.304993	-65.209000	1349.625000	-4.221875	10.416875	29.715000
485.194000	61.792999	1339.987061	-17.723125	0.888125	38.626877
513.132019	58.316002	1205.177002	-27.531876	12.705000	41.046249
614.697021	89.548004	1184.742065	-4.563125	54.643749	30.887501
429.074005	230.580002	1060.546021	3.775625	87.723122	35.035000
520.085999	146.095001	1045.174072	7.148750	102.952499	39.532501
253.028000	265.472015	828.624023	15.176875	122.145622	42.651875
99.064003	134.749008	952.088013	-2.773750	107.808746	47.985001
172.020004	281.393005	826.062012	-5.315625	56.717499	46.471249
35.563000	173.362000	919.514038	-1.780625	32.418751	46.156250
68.442001	311.954010	829.173035	3.640000	24.504375	34.956249
60.938999	264.862000	845.093994	-3.097500	36.981876	21.822500
-50.630001	255.773010	859.367981	-7.778750	63.503124	17.158751
-123.769005	240.096008	905.117981	-7.778750	63.503124	14.651875
-123.769005	193.492004	862.845032	-8.391250	60.038124	14.651875
-187.026001	193.492004	862.845032	-11.305000	40.626251	15.417500
-197.212997	205.326004	881.267029	-9.712500	26.477501	14.498750
-232.654007	148.779007	856.744995	-4.038125	16.712500	13.321875
-219.844009	188.917007	871.567993	-4.357500	10.959375	9.874375
-270.962006	170.190002	937.143005	-0.516250	8.745625	11.300625
-300.119995	141.581009	915.793030	3.815000	7.402500	10.622500
-345.015991	143.472000	987.285034	1.365000	2.541875	6.457500
-341.661011	173.606003	984.661987	3.688125	-2.988125	7.770000
-340.257996	103.028999	1018.395020	2.380000	-8.106875	2.467500
-297.802002	131.759995	1066.036011	-2.826250	-13.785625	4.239375
-234.850006	124.257004	1052.615967	-1.229375	-10.613750	0.656250
278.464996	27.999001	1165.709961	3.123750	1.251250	0.271250
258.518005	51.179001	1121.850952	0.354375	3.053750	-0.595000
285.480011	24.827000	1143.567017	1.211875	0.433125	2.603125
284.015991	25.620001	1095.682007	1.894375	6.020000	0.026250
282.917999	56.973999	1096.536011	0.245000	4.913125	2.673125
258.091003	17.141001	1121.484985	0.301875	7.358750	6.208125
183.671005	-15.372000	1122.034058	3.793125	11.480000	4.344375
245.951996	-93.085999	1167.784058	11.138750	2.511250	-0.056875
228.262009	-192.210999	1259.040039	16.651251	1.483125	2.909375
241.804001	-280.295013	1341.328979	29.378124	5.101250	14.861875
239.608002	-239.791000	1377.318970	21.870625	1.968750	28.008751
202.093002	-319.395996	1502.063965	16.730000	13.501250	44.152500
282.735016	-218.197006	1554.341064	16.113125	23.992500	65.668747
181.109009	-239.669006	1453.325073	4.029375	53.287498	68.285004
95.098999	-188.917007	1379.270996	0.673750	79.716873	43.566250
119.621002	-151.341003	1363.105957	-10.696875	67.869377	22.509375
258.152008	-63.806000	1360.300049	-8.203125	31.714375	30.935625
226.066010	-37.332001	1255.928955	-10.762500	32.046875	42.770000
340.929016	64.965004	1381.894043	13.365625	32.541248	56.406876
432.734009	237.412003	1172.603027	17.163124	19.035625	52.377499
319.152008	266.813995	1046.150024	-5.175625	47.442501	34.160000
212.279999	352.763000	1043.099976	-1.330000	92.273125	26.438126
67.527000	320.127991	921.832031	-1.789375	111.930000	29.102501
-69.479004	397.842010	987.406982	3.281250	81.252502	15.028125
11.895000	262.848999	849.851990	11.195625	68.910622	13.584375
-86.803001	255.895004	840.640991	18.291876	48.943127	10.386250
-114.619003	223.503998	756.216980	17.828125	25.764376	-2.366875
-163.846008	262.483002	805.260986	13.501250	28.288750	-7.406875
-289.140015	173.179001	834.479980	11.707500	42.205624	17.731874
-194.956009	204.227997	878.400024	5.009375	20.072500	18.086250
-225.822006	267.058014	865.712036	-5.241250	14.888125	17.088751
-265.654999	226.371002	873.337036	-19.223749	17.307501	11.340000
-371.795013	135.298004	838.384033	-32.130001	8.706250	8.732500
-316.651001	147.132004	838.262024	-30.563749	-2.410625	3.342500
-358.740997	148.839996	881.937988	-13.291250	-3.338125	1.570625
-369.476990	139.994995	919.330994	-5.993750	4.921875	6.829375
-398.085999	110.531998	978.806030	-7.560000	-2.813125	15.102500
-349.102997	127.001999	981.062988	-7.293125	-5.285000	10.381875
124.074005	-174.033005	1199.808960	-0.323750	-6.566875	-7.131250
145.973007	-178.729996	1165.466064	3.355625	-1.925000	-1.273125
151.097000	-104.066002	1140.395020	7.476875	2.073750	1.089375
175.497009	-121.877998	1153.875977	10.959375	4.532500	3.180625
181.231003	-51.545002	1103.612061	11.134375	8.211875	0.118125
164.456009	-33.855000	1106.357056	7.385000	5.573750	-0.170625
179.462006	-40.687000	1122.521973	7.083125	3.049375	-1.163750
182.817001	-48.494999	1150.703979	5.464375	3.959375	-3.325000
187.331009	-219.722000	1287.709961	5.114375	-1.001875	-0.437500
180.499008	-283.649994	1303.692017	5.245625	5.035625	7.870625
114.924004	-411.018005	1406.721069	3.010000	7.030625	9.940000
52.094002	-363.682007	1335.107056	10.771250	20.374374	12.219375
41.297001	-509.899017	1476.687988	6.720000	17.110624	18.865000
95.221001	-221.613007	1334.802002	11.851875	19.048750	32.930626
100.589005	-161.650009	1391.471069	-0.157500	32.335625	49.778751
153.537003	-259.799011	1352.675049	-1.736875	28.984375	52.893749
157.074997	-160.613007	1322.235962	-0.586250	20.431250	49.857498
184.220001	-125.721001	1328.519043	4.851875	31.815001	41.908127
195.444000	-85.705002	1236.958008	7.083125	52.390625	38.508751
105.834999	4.514000	1343.098022	4.847500	61.337502	43.400002
161.710999	-45.018002	1145.519043	2.108750	67.296249	50.754375
229.542999	113.277000	1153.815063	9.301250	66.618126	61.048752
43.188000	399.244995	1021.689026	-2.918125	79.222504	55.055000
-133.529007	180.559998	966.666992	-16.533125	79.519997	32.016251
5.124000	255.712006	940.192993	-24.058125	38.530624	34.125000
-83.387001	200.507004	958.614990	-32.987499	24.815001	33.040001
23.912001	185.318008	828.440979	-31.998751	15.216250	27.860001
-287.066010	177.693008	821.853027	-19.998125	14.809375	27.531876
-156.464996	161.406006	730.169983	-6.260625	28.271250	20.199375
-349.347015	-10.248000	775.187988	7.420000	32.703125	24.753750
-336.231995	58.621002	860.527039	1.448125	26.346251	25.283125
-399.306000	17.995001	858.635986	-8.067500	12.915000	32.733749
-325.739990	65.514000	884.622009	-22.715000	-14.266875	31.342501
-325.984009	114.741005	924.088989	-30.926874	-23.261875	22.701876
-305.670990	141.276001	879.010010	-34.076874	-16.108749	22.334375
-299.815002	144.020996	924.638000	-26.407499	-0.634375	8.395625
-429.378998	55.937000	963.983032	-18.226250	5.626250	4.007500
-396.377991	68.442001	974.231018	-4.361875	4.563125	4.392500
187.453003	-40.504002	1084.458008	1.631875	14.516250	-11.825625
197.762009	-47.763000	1108.675049	0.691250	1.417500	-8.785000
228.139999	-30.500000	1108.735962	-0.748125	-3.587500	-1.955625
209.718002	-40.687000	1106.906006	-1.426250	-4.230625	3.836875
206.546005	-45.811001	1135.453979	0.196875	-1.518125	7.660625
181.352997	-153.475998	1299.848999	-3.688125	-2.686250	9.690625
183.488007	-328.790009	1466.562012	2.108750	-13.558125	11.585000
205.387009	-583.098999	1762.656006	6.951875	-5.096875	25.615625
144.813995	-497.699005	1593.807983	47.188751	2.511250	27.807501
212.829010	-380.457001	1422.885986	51.450001	6.033125	45.233124
181.902008	-204.654999	1413.431030	36.365002	-6.986875	47.547501
382.226013	-90.829002	1388.665039	11.729375	-5.556250	23.051874
500.688019	65.391998	1403.244019	-3.202500	20.873125	21.170626
472.811005	143.716003	1173.640015	-8.404375	55.895000	34.549374
541.009033	150.731003	1163.697021	-25.742500	103.280624	34.238750
330.925018	321.104004	1114.469971	-38.814999	123.410004	41.851250
283.283997	150.548004	1072.562988	-34.606251	109.646248	41.448750
168.787003	284.442993	1006.866028	-47.040001	98.783127	48.391876
38.247002	178.546997	963.129028	-26.433750	82.998123	47.705002
17.141001	226.188004	873.703003	-4.528125	49.113750	37.655624
-61.976002	443.226013	888.281982	6.330625	41.059376	39.099377
-77.470001	254.126007	766.770020	1.955625	51.909374	44.056252
-157.014008	103.516998	646.905029	-9.209375	33.722500	42.533749
-136.335007	89.548004	738.832031	-27.181875	27.111876	35.656250
-326.716003	25.498001	736.392029	-27.181875	27.111876	10.508750
-326.716003	33.123001	788.913025	-10.425625	20.225624	10.508750
-322.263000	33.123001	788.913025	22.754375	28.157499	-10.841250
-525.820007	59.414001	862.783997	30.821875	19.980625	6.063750
-354.044006	111.446999	940.132019	24.027500	-10.263750	26.411875
-295.484009	40.931000	1051.091064	13.693750	-26.521250	26.363750
-319.213013	181.902008	1070.610962	7.595000	-11.729375	19.621876
-283.710999	91.805000	1081.774048	-5.013750	7.638750	-6.680625
-247.354996	167.262009	1059.265015	-15.929375	4.235000	-3.311875
-291.274994	50.813000	1049.139038	-7.805000	12.013750	7.192500
-281.636993	102.785004	1008.635010	-5.026875	17.758125	4.226250
-368.867004	68.320000	940.437012	0.923125	14.752500	9.419375
-395.951019	31.171000	951.721985	2.835000	8.855000	1.986250
-430.782013	96.929001	973.132996	3.793125	5.792500	-7.634375
294.141998	-63.074001	1113.188965	-2.283750	5.989375	-2.485000
263.153992	-64.416000	1135.270996	2.660000	14.424375	2.100000
277.916016	-77.592003	1113.799072	8.045625	14.756875	2.953125
278.403992	-51.850002	1137.711060	5.840625	10.342500	8.439375
269.437012	-74.237000	1137.894043	5.341875	18.011875	9.065000
249.612000	-162.199005	1266.299072	4.480000	12.490625	10.062500
276.817993	-230.031006	1354.687988	1.023750	6.536250	13.103125
234.544998	-480.558014	1601.128052	16.209375	20.383125	17.893749
209.779007	-385.886017	1568.066040	55.383125	-0.380625	18.541250
358.009003	-259.554993	1489.498047	75.018127	-4.554375	16.060625
389.424011	-119.071999	1439.966064	71.675629	20.440001	14.135625
402.477997	14.213000	1296.005981	24.539375	35.021873	24.736250
400.160004	-63.195999	1257.880981	-22.045626	53.440624	36.645000
369.903992	103.211998	1203.224976	-59.185001	46.493126	42.691250
349.529999	56.119999	1268.739014	-78.876877	61.827499	48.068127
329.095001	36.600002	1112.274048	-52.395000	96.263123	32.125626
212.585007	118.766998	1009.855042	-40.394375	92.684372	34.247501
139.263000	157.440994	1094.156982	-18.226250	44.253124	58.126251
80.093002	125.172005	920.002014	9.515625	15.251250	65.038750
50.020000	113.764999	900.604004	16.126249	31.605000	63.087502
204.227997	230.153000	875.777039	9.528750	33.691875	41.369999
24.705000	283.588989	755.484985	-1.811250	51.008125	33.678749
-78.263000	307.378998	688.140991	-13.457500	57.478748	25.094999
-137.311005	274.500000	699.304016	-10.578750	35.826874	17.447500
-152.865997	292.190002	736.330994	-7.354375	23.721251	14.052500
-252.966995	164.822006	769.453979	0.511875	7.546875	14.245000
-173.972000	135.542007	893.528015	-9.537500	-15.872500	12.551875
-226.126999	135.419998	971.364014	-10.491250	-14.901250	8.938125
-203.679001	79.117004	1051.151978	-1.452500	-9.751875	5.656875
-209.108002	12.566000	1077.504028	-3.281250	-10.355625	2.773750
-260.774994	-53.558002	1141.187988	-3.202500	-19.814375	6.286875
-132.919006	-10.248000	1157.901978	-1.408750	-15.470000	-4.029375
-151.158005	-26.596001	1127.401978	-7.682500	-0.275625	-9.139375
-184.464005	-2.867000	1142.041992	-9.905000	0.840000	-0.993125
-217.647995	-46.848000	1146.006958	1.645000	1.863750	1.605625
-209.291000	-38.247002	1101.537964	9.345000	3.255000	-0.218750
-203.434998	-28.059999	1080.797974	7.100625	-0.529375	1.264375
-175.802002	-8.723001	1058.289062	4.313750	-0.647500	-2.747500
343.125000	-101.320999	1073.843994	5.320000	-5.267500	4.668125
348.493011	-76.311005	1057.739990	5.936875	-8.163750	1.824375
330.376007	-48.922001	1123.925049	0.975625	-5.985000	0.258125
332.816010	-131.516006	1139.114014	-1.855000	-6.483750	0.621250
328.058014	-104.309998	1136.063965	0.490000	-6.352500	1.264375
333.852997	-173.423004	1153.875977	3.578750	4.580625	1.754375
339.098999	-292.739014	1300.825073	7.428750	5.464375	9.170000
358.497009	-428.281006	1426.302002	12.210625	1.500625	18.930626
305.061005	-514.046997	1465.159058	37.528751	24.110624	24.001249
304.634003	-441.395996	1475.468018	38.622501	33.306873	39.007500
333.670013	-438.407013	1395.070068	38.285625	30.025625	47.718124
360.144012	-326.289001	1371.341064	28.490000	46.528126	41.785625
332.144989	-59.353001	1374.756958	10.136875	48.505627	29.693125
422.485992	-41.174999	1296.982056	-14.796250	64.190002	34.488125
412.054993	4.026000	1160.525024	-13.689375	96.648125	42.752499
269.010010	3.172000	1043.893066	-16.415001	95.405624	50.238125
242.597000	65.148003	1060.302002	-28.721874	71.185623	48.190624
169.275009	106.445000	892.734985	-29.408751	65.603127	59.692501
140.848999	89.181999	1016.138000	-20.256250	41.763748	59.368752
65.514000	240.706009	1038.525024	-10.946250	24.513124	45.154373
199.165009	351.908997	893.466980	-7.113750	29.885626	46.659374
81.069000	247.354996	913.353027	-10.937500	8.220625	41.050625
-7.259000	207.095001	953.491028	-20.291250	7.166250	29.579374
-40.138000	237.412003	788.669006	-21.844376	23.594376	11.112500
-293.044006	190.563995	773.723999	-18.103750	33.770626	3.395000
-186.904007	163.296997	864.492004	-13.960625	17.486876	0.065625
-347.273010	25.864000	804.101990	-4.970000	14.721875	11.598125
-139.628998	32.025002	949.098999	4.182500	4.046875	6.860000
-316.894989	-27.023001	978.806030	4.200000	-11.860625	8.605625
-189.893005	-30.378000	1029.740967	6.256250	-8.211875	13.715625
-133.102005	-67.527000	1111.968994	9.786875	-14.800625	2.970625
-232.959000	-53.192001	1118.801025	5.368125	-10.556875	3.097500
-141.764008	-56.608002	1124.779053	3.425625	-5.219375	1.050000
-206.302002	-75.152000	1111.176025	0.188125	-1.176875	-1.203125
-187.087006	-61.122002	1103.185059	-1.111250	3.250625	1.356250
-169.397003	-84.973000	1104.222046	0.398125	-0.800625	1.211875
-192.089005	-72.834000	1107.821045	-1.246875	-2.900625	2.673125
-170.373001	-72.711998	1100.013062	0.210000	-3.005625	2.034375
