A_X[mg]	A_Y[mg]	A_Z[mg]	G_X[dps]	G_Y[dps]	G_Z[dps]	
196.419998	-14.457000	1116.056030	-9.835000	-0.039375	-6.291250
189.893005	14.884000	1134.172974	-3.346875	1.373750	-3.010000
196.602997	39.466999	1138.687012	0.446250	-7.385000	-0.691250
250.039001	49.776001	1138.625977	2.152500	-6.470625	1.806875
231.556000	66.246002	1134.722046	5.136250	-4.322500	5.188750
206.485001	24.827000	1193.891968	2.800000	-3.193750	5.897500
259.920990	-97.234001	1306.071045	8.006250	-4.755625	7.323750
181.048004	-231.983002	1449.177002	12.473125	-4.130000	15.623125
60.024002	-386.252014	1547.265015	10.018750	17.316250	10.758125
118.828003	-384.910004	1520.058960	28.485624	29.049999	13.431250
85.522003	-210.755005	1585.207031	22.588125	19.582500	39.090626
208.742004	-102.723999	1475.468018	3.718750	4.200000	61.503750
309.209015	26.169001	1736.182007	-27.496876	14.035000	82.381248
333.121002	-96.501999	1308.999023	-34.860001	56.131248	70.008751
230.641006	-167.688995	1339.072021	-27.011250	75.599998	65.406250
237.107010	-150.792007	1241.472046	12.057500	72.205002	34.501251
105.591003	63.684002	1343.402954	-6.930000	52.263748	18.808125
583.770020	145.119003	1033.339966	-1.723750	39.016251	21.923124
325.191010	157.014008	1051.395996	14.288750	76.208122	19.516874
160.490997	131.576996	1050.907959	8.728125	107.834999	30.161249
90.829002	154.268997	950.807007	5.407500	98.017502	35.118126
-12.871000	97.661003	822.158020	1.758750	87.482498	44.699375
-115.107002	335.317017	756.888000	18.865000	48.803123	31.416876
-143.472000	126.941002	676.612000	30.016874	14.170625	21.065624
-166.102997	222.040009	631.960022	18.235001	-15.513750	6.177500
-170.800003	241.865005	669.718994	3.071250	-34.785625	6.046250
-135.968994	246.988998	689.117004	-7.783125	-32.698750	4.484375
-94.306000	236.619003	754.997009	-4.965625	-18.987499	-0.914375
-126.148003	267.912018	857.476990	-6.361250	-18.020624	6.632500
-141.031998	224.175003	922.991028	-7.078750	-14.148750	2.843750
-177.266006	224.358002	996.739990	-3.403750	-2.699375	-0.476875
-144.447998	185.257004	980.880005	-1.474375	-2.108750	-5.381250
-202.824997	157.563004	1028.582031	-6.510000	-5.066250	0.148750
-200.934006	157.136002	1030.290039	-5.630625	-2.318750	4.904375
-235.826004	107.237999	1041.270020	-1.255625	-3.845625	8.386875
-208.863998	119.194000	1070.306030	2.021250	-5.315625	5.298125
-226.188004	114.436005	1081.895996	7.398125	-2.025625	1.570625
-209.839996	118.645004	1098.488037	7.660625	-1.890000	-2.244375
220.454010	108.458000	1160.281006	4.331250	-0.966875	5.346250
235.947998	104.676003	1128.988037	-0.717500	0.358750	-1.093750
245.525009	108.519005	1112.395996	-0.463750	1.338750	-4.003125
245.098007	91.134003	1106.600952	-0.358750	1.938125	-2.791250
234.057007	89.914001	1093.425049	-0.551250	-0.822500	-2.559375
216.306000	27.084000	1188.645996	1.859375	-3.198125	0.577500
240.279007	-18.910000	1251.476074	4.641875	-4.650625	3.613750
167.932999	-177.022003	1382.931030	3.211250	-7.315000	6.317500
232.166000	-262.971008	1530.672974	3.211250	-7.315000	12.158125
232.166000	-414.373016	1751.859009	8.789375	-17.661875	12.158125
236.619003	-414.373016	1751.859009	18.808125	-8.811250	18.812500
335.683014	-213.012009	1706.170044	32.414375	19.311251	-6.715625
359.472992	-65.209000	1479.799072	27.055000	33.761875	-1.181250
247.294006	-31.659000	1334.984985	37.248749	18.746876	13.619375
189.893005	57.462002	1189.195068	46.777500	-11.528125	2.975000
393.816010	184.158997	1163.331055	31.154375	-28.848749	-1.623125
332.571991	504.714020	1066.768066	23.852501	7.813750	25.248125
581.817993	206.912003	1029.375000	-2.835000	88.436249	22.526875
491.233002	355.691010	1254.953003	-11.200000	117.700623	14.931875
323.056000	296.399017	1111.664062	-8.360625	117.630623	21.481251
151.035995	336.170990	1056.581055	-7.183750	101.080002	33.306873
96.563004	251.503006	981.489990	-16.034374	55.960625	48.706875
-29.280001	150.975006	888.892029	-35.415627	31.784374	52.919998
71.431000	243.389999	827.403992	-38.990002	48.072498	36.736874
-65.879997	168.481995	740.601013	-8.868125	61.993752	28.008751
-39.161999	251.380997	617.564026	4.550000	42.603748	25.134375
-32.390999	256.261017	719.007019	6.899375	25.869375	23.056250
-37.088001	330.985992	729.132996	0.682500	21.363125	33.136250
-210.328003	278.891998	748.531006	-6.505625	25.129999	27.811874
-223.565002	302.987000	796.294006	-13.037500	9.021250	37.121876
-218.563004	300.730011	884.744019	-4.729375	-5.967500	30.358126
-246.257004	300.242004	931.226013	0.424375	-2.432500	14.901250
-180.621002	316.955994	991.981995	-1.203125	-0.581875	14.109375
-259.006012	277.855011	1009.184021	4.471250	3.298750	13.251875
-188.673004	283.101013	1036.390015	2.848125	-3.526250	6.238750
-242.352997	234.727997	1068.719971	1.203125	-1.111250	6.965000
-205.387009	290.542999	1086.044067	4.296250	0.595000	7.428750
-199.042999	227.895996	1120.875000	3.893750	-5.420625	12.547500
216.916000	106.506004	1095.682007	17.311874	13.256250	-5.757500
241.499008	97.904999	1073.782959	17.631250	10.648750	1.968750
266.752991	155.061996	1037.609985	14.157500	3.854375	8.255625
265.716003	138.835999	1044.990967	9.856875	2.100000	9.922500
320.433014	185.440002	1100.379028	2.423750	-0.700000	9.082500
294.934998	94.306000	1170.162964	-4.641875	2.581250	6.654375
256.016998	100.223000	1164.062988	-4.248125	12.311250	-0.350000
243.817001	37.453999	1221.952026	-5.823125	11.895625	0.853125
196.419998	-52.399002	1326.261963	2.953125	6.431250	2.620625
307.256989	-139.263000	1495.476074	17.325001	13.934375	3.731875
193.979996	-190.442001	1473.942993	31.460625	29.386875	7.953750
93.513000	-107.909004	1430.510986	25.165001	57.028126	12.376875
116.815002	-148.779007	1436.367065	24.184999	62.982498	30.423750
-82.837997	29.097000	1338.583984	21.424376	43.942501	37.222500
94.245003	144.509003	1403.305054	18.318125	22.566250	31.815001
254.675003	223.748001	1497.427979	21.288750	-7.940625	39.886875
347.334015	160.063995	1241.411011	41.912498	11.353125	17.937500
362.828003	360.876007	1178.764038	19.547501	46.108124	6.120625
365.938995	298.045990	1131.062012	-13.746250	65.139374	9.603125
268.522003	330.742004	1062.925049	-25.650625	83.256248	16.161249
175.192001	241.376999	1085.860962	-26.783751	105.380623	28.494375
-22.264999	235.520996	1047.552979	-24.749374	83.234375	24.902500
12.261000	272.487000	903.410034	0.818125	49.166248	40.337502
39.284000	295.789001	832.955017	7.087500	31.801874	37.546249
-59.719002	245.464005	813.130005	4.580625	21.205626	26.302500
-10.858000	257.420013	802.699036	-0.380625	16.581249	28.385000
-97.539001	244.427002	778.421021	6.571250	31.771250	15.321250
-194.956009	233.569000	809.591980	22.653749	55.689377	-1.684375
-198.128006	336.049011	843.569031	11.768750	47.009377	-6.059375
-172.813004	386.800995	818.803040	-9.651250	5.127500	5.530000
-222.040009	368.440002	822.463013	-20.426874	-6.164375	11.051250
-164.699997	432.123993	846.009033	-22.640625	5.573750	14.748125
-309.269989	333.243011	893.040039	-20.142500	18.348749	21.026251
-288.834991	323.605011	900.543030	-16.445625	10.587500	17.364374
-329.217010	306.708008	959.286011	-12.490625	-0.275625	7.459375
-286.334015	294.325012	975.390015	-11.007500	-0.192500	0.595000
-325.313019	269.315002	1002.718018	-10.679375	-0.678125	1.964375
-293.898010	236.313995	1012.966003	-7.616875	-1.273125	7.100625
10.919000	145.790009	1202.310059	0.901250	-16.152500	9.695000
42.456001	134.261002	1213.534058	2.686250	-10.346875	8.955625
89.548004	160.186005	1186.876953	6.020000	-5.901875	7.599375
130.783997	149.999008	1158.817017	4.484375	-0.371875	4.151875
110.776001	147.253998	1140.333984	5.298125	6.151250	3.858750
118.035004	114.436005	1130.269043	3.985625	9.104375	2.979375
65.209000	63.806000	1212.130981	5.210625	9.870000	7.577500
7.991000	-5.551000	1323.273071	10.513125	12.805625	7.765625
-59.048000	-74.237000	1435.025024	21.201250	16.349375	11.261250
-175.497009	-191.356995	1716.234985	33.971874	21.752501	37.340626
-92.292999	-129.930008	1641.388062	52.972500	26.809999	45.311874
-31.476000	0.061000	1556.903076	68.538750	43.885624	55.908127
-59.230999	88.816002	1523.536011	71.815628	68.372498	61.263126
-40.687000	212.768005	1388.665039	67.637497	60.974377	49.682499
-15.555000	338.794006	1236.775024	40.490623	14.126875	45.040627
95.343002	361.303009	1227.136963	7.665000	-22.203125	34.295624
200.934006	389.179993	954.955017	-16.493750	-6.881875	5.145000
226.492996	407.175018	1068.049072	-32.235001	34.881874	-18.956875
122.061005	457.317017	988.809998	-37.896252	81.891251	-23.336250
73.444000	380.518005	1112.151978	-27.291250	98.070000	-3.224375
35.806999	356.057007	1021.932983	-16.344999	89.096878	0.743750
-200.324005	378.139008	980.453003	-16.165625	66.123749	1.876875
-10.065001	372.954010	935.862000	-19.438126	39.519375	15.246875
-40.504002	333.487000	882.364990	-11.274375	58.213749	14.686875
-24.400000	338.001007	746.578979	-10.911250	49.275623	-10.517500
-188.063004	300.058990	812.947021	-13.540625	33.814377	-19.617500
-187.391998	354.105011	682.895020	-6.234375	47.162498	-9.231250
-262.544006	240.584000	665.388000	-13.151250	39.523750	12.823125
-273.463013	354.105011	642.268982	-16.231251	26.468750	10.447500
-306.708008	328.485016	674.416016	-2.248750	22.688749	1.771875
-362.644989	349.225006	742.552979	-3.303125	18.248125	6.317500
-325.069000	361.730011	774.578003	-11.178125	10.788750	0.231875
-462.014008	315.858002	829.173035	-7.109375	5.971875	-2.401875
-432.856018	298.656006	874.374023	-10.963750	-6.094375	-3.075625
-518.439026	249.490005	938.851013	-7.914375	-9.100000	-2.008125
-501.664001	277.916016	928.481018	-2.209375	-0.476875	-2.235625
-506.056000	255.285004	983.991028	-1.653750	-4.221875	-2.156875
-469.516998	271.937988	985.515991	-3.338125	-7.896875	0.625625
40.504002	163.479996	1124.412964	7.870625	-1.916250	2.161250
30.439001	161.650009	1116.971069	4.939375	-0.175000	3.373125
40.443001	171.348999	1118.130005	2.778125	2.257500	2.170000
44.469002	152.500000	1148.508057	1.640625	0.840000	3.596250
38.368999	149.572006	1147.776001	0.564375	3.005625	-0.647500
59.475002	136.945007	1137.711060	4.545625	9.336250	0.560000
43.798000	133.223999	1163.880005	4.685625	8.653750	6.466250
0.793000	63.867001	1243.973022	3.600625	4.602500	13.890625
-19.764000	-40.199001	1419.409058	11.287500	5.731250	18.808125
-99.307999	-93.269005	1440.880981	22.443750	9.655625	18.965626
-45.688999	-90.584999	1462.963013	24.784374	17.841249	32.134377
-55.083000	-90.767998	1461.560059	26.009375	23.485001	41.728748
-19.459000	26.047001	1490.718018	39.554375	38.198124	49.931873
4.331000	86.863998	1494.682983	27.991249	59.871876	63.848751
-77.592003	223.503998	1401.536011	24.412500	78.938126	57.198750
-113.338005	384.360992	1322.479980	17.793125	73.145622	47.092499
-128.832001	400.891998	1297.531006	3.552500	54.381248	32.055626
-88.876999	563.945007	1184.619995	-1.741250	38.806252	14.791875
-82.532997	455.182007	1124.473999	-20.444374	37.064999	9.918125
18.971001	439.688019	1144.299072	-10.683750	49.139999	6.059375
-139.201996	395.157990	1030.534058	-12.429375	81.414375	13.335000
-116.083000	369.233002	1026.264038	-21.052500	54.490623	22.780624
-103.334000	338.306000	948.306030	-0.424375	36.728127	21.748125
-92.475998	311.893005	859.673035	-2.130625	27.125000	19.757500
-41.663002	322.385010	781.044006	0.271250	39.821251	29.251249
-65.696999	324.825012	706.807007	3.928750	50.811249	19.048750
-198.921005	353.433990	610.122009	2.813125	49.529373	-2.397500
-157.624008	388.265015	632.997009	-1.894375	30.511250	11.698750
-184.403000	352.701996	596.153015	-8.513750	16.476250	15.518125
-246.195999	408.395020	660.812988	-14.420000	9.489375	7.310625
-291.335999	373.076019	692.716003	-11.383750	-2.130625	9.388750
-281.759003	384.056000	811.544006	-11.681250	0.358750	12.075000
-299.876007	411.506012	856.195984	-5.022500	1.338750	5.276250
-376.248016	407.601990	907.130981	5.215000	12.626250	9.051875
-358.924011	400.587006	936.228027	3.526250	3.893750	7.581875
-463.539001	381.738007	960.079041	1.789375	7.363125	6.396250
-461.160004	373.136993	953.491028	3.438750	10.766875	1.898750
-477.020020	364.475006	972.401001	2.248750	-1.198750	-0.818125
-33.184002	240.096008	1097.878052	-1.933750	3.683750	4.291875
-30.561001	237.900009	1084.092041	-4.230625	-2.415000	5.346250
-30.622000	202.520004	1170.529053	-2.594375	-2.331875	8.487500
-35.380001	224.296997	1158.451050	-0.503125	2.467500	5.481875
-81.008003	206.302002	1192.977051	-1.557500	11.650625	6.803125
-148.412994	126.758003	1365.180054	-3.731875	10.740625	12.547500
-251.625000	145.363007	1415.383057	4.068750	7.796250	14.695625
-268.765991	18.056000	1671.461060	19.193125	18.396875	27.304375
-261.873016	77.835999	1638.459961	40.958752	32.580624	37.961876
-277.794006	160.735001	1566.419067	36.277500	38.259377	39.882500
-174.643005	260.165009	1527.623047	3.189375	26.477501	43.098125
-110.105003	281.881012	1354.322021	-17.276875	38.294376	32.436249
-81.374001	248.391998	1220.671021	-5.066250	55.103127	24.080000
-59.841000	344.467010	1054.019043	-8.553125	54.792500	19.070625
-108.945999	284.381989	1082.628052	-2.384375	74.720627	3.390625
-175.802002	321.774994	1000.278015	-0.161875	79.502502	-4.449375
-57.401001	274.377991	954.283997	-8.583750	43.653751	12.158125
29.463001	420.106995	963.739014	-5.035625	29.828751	5.595625
43.675999	371.246002	866.078003	-4.401250	45.653126	-4.541250
-211.852997	381.311005	943.791992	-26.705000	55.230000	2.152500
-304.634003	320.006012	933.604980	-29.640625	55.969376	-6.033125
-327.020996	310.429016	830.880981	-32.200001	47.691875	1.894375
-392.596008	233.874008	846.557983	-29.815624	17.902500	17.920000
-234.789001	217.404007	788.059021	-5.223750	12.158125	7.013125
-350.200989	264.496002	705.892029	-1.172500	16.493750	10.500000
-203.679001	346.662994	711.565002	-11.103750	10.469375	16.887501
-289.567017	345.138000	672.158997	-12.998125	14.721875	16.795626
-274.011993	353.983002	686.372009	-12.998125	24.810625	14.424375
-300.669006	411.384003	735.598999	-5.792500	24.810625	14.424375
-300.669006	411.384003	816.973022	-5.341875	4.003125	13.619375
-409.066010	376.126007	816.973022	-3.386250	5.451250	16.537500
-407.114014	396.438995	846.314026	4.379375	9.003750	7.074375
-508.923004	365.024017	885.171021	3.066875	2.310000	9.926875
-492.148010	377.589996	932.202026	-0.126875	-3.241875	11.983125
-553.026001	315.369995	982.283020	5.267500	-4.628750	4.515000
-470.981018	341.600006	965.996033	2.213750	-5.967500	1.273125
-466.589020	339.891998	969.473022	0.905625	-2.839375	2.826250
-442.433014	291.580017	952.697998	2.594375	4.961250	2.975000
-156.037994	146.522003	1157.597046	-0.205625	-9.270625	2.016875
-139.445999	159.087997	1151.619019	-0.262500	-6.164375	4.830000
-119.133003	114.557999	1143.567017	1.435000	-1.461250	5.932500
-122.975998	127.612000	1105.015015	-0.993125	0.752500	1.793750
-120.658005	81.862000	1129.049072	-3.828125	-3.377500	3.990000
-123.585999	85.339005	1192.306030	-3.946250	-7.341250	7.971250
-166.469009	8.662000	1281.609985	-4.843125	-1.741250	10.959375
-262.056000	-26.474001	1375.427979	0.485625	-1.596875	9.200625
-221.735001	-71.492004	1459.546997	11.869375	-2.629375	17.202499
-350.811005	-74.054001	1541.042969	17.272499	-3.128125	23.441250
-192.943008	-63.440002	1591.307007	21.122499	-14.262500	20.291250
-139.751007	14.518001	1539.457031	33.748749	1.557500	18.991875
-83.631004	45.139999	1483.947021	33.880001	29.281876	21.297501
-71.492004	121.756004	1351.454956	22.509375	48.015625	17.858749
3.172000	291.213989	1264.468994	20.488125	76.505623	19.271875
-43.431999	184.708008	1168.638062	8.890000	113.833122	30.165625
-173.300995	197.762009	1036.451050	10.434375	107.576874	38.810623
-204.472000	192.089005	1124.473999	-8.675625	73.994377	31.841249
-81.618004	244.061005	988.382996	-0.144375	82.464378	19.381250
-199.287003	472.506012	976.061035	-17.158751	66.832497	12.236875
-138.958008	439.932007	901.153015	-29.478750	46.344376	20.146875
-371.977997	399.855011	817.949036	-22.618750	52.438751	31.596251
-263.764008	331.291016	833.747986	-19.980625	21.805000	59.049374
-233.507996	306.281006	767.014038	-18.016251	11.143125	45.097500
-297.679993	314.576996	693.875000	-8.553125	28.253750	27.881874
-224.113998	389.545990	699.975037	-18.116875	23.248751	6.216875
-326.532990	318.602997	672.281006	-25.305000	24.920000	5.503750
-271.877014	431.941010	647.515015	-26.276251	27.846874	7.380625
-395.524017	353.556000	648.307983	-31.215626	8.911875	5.709375
-369.660004	419.131012	743.773010	-32.116875	-1.920625	7.577500
-435.174011	339.648010	764.757019	-23.979376	3.443125	3.018750
-488.915009	351.115997	832.345032	-13.916875	2.156875	4.151875
-459.940002	337.330017	879.619995	-4.563125	-6.689375	1.666875
-528.809021	301.096008	899.322998	2.135000	-5.092500	6.059375
-513.132019	322.628998	915.000000	0.017500	-2.069375	5.398750
-549.304993	258.640015	930.372009	-1.675625	0.319375	6.566875
-518.377991	293.959015	929.884033	-0.166250	-3.526250	2.117500
-522.648010	275.231995	927.932007	3.688125	-5.473125	1.592500
-170.678009	65.026001	1212.192017	-9.782500	-13.925625	-23.625000
-123.830002	97.844002	1218.718994	-5.057500	-8.872500	-17.513124
-119.133003	48.312000	1214.875977	1.356250	-4.274375	-7.962500
-133.956009	116.937004	1181.203979	7.205625	0.223125	-2.603125
-136.639999	122.549004	1151.680054	7.288750	-0.319375	0.525000
-105.896004	121.634003	1134.966064	6.803125	-1.176875	4.882500
-78.933998	126.453003	1139.052979	7.568750	5.385625	1.601250
-88.145004	132.431000	1101.598999	4.020625	8.089375	2.515625
-68.502998	96.746002	1128.134033	1.141875	5.219375	3.574375
-84.912003	123.098000	1115.263062	2.865625	6.671875	4.025000
-90.951004	111.081001	1151.253052	2.288125	6.225625	3.233125
-104.554001	79.300003	1197.307983	2.419375	8.050000	5.901875
-195.078003	35.563000	1297.531006	2.528750	10.193750	5.346250
-201.361008	-45.506001	1414.285034	2.406250	8.120000	11.138750
-325.984009	-147.070999	1481.750977	18.388124	0.892500	19.928125
-248.270004	-119.681999	1553.730957	33.901875	4.169375	23.611876
-227.712997	-0.488000	1507.554077	43.605625	11.235000	35.590626
-281.759003	45.262001	1529.331055	30.646875	17.500000	38.867500
-191.662003	92.720001	1464.609985	9.730000	25.506250	44.926876
-123.159004	71.613998	1500.416992	1.553125	30.603125	35.096249
-116.205002	323.726990	1338.889038	1.920625	37.310001	14.857500
7.564000	222.466995	1243.057983	3.561250	26.866875	28.840000
-94.976997	281.088013	1207.921997	3.885000	34.711250	38.189377
47.640999	314.272003	1130.817993	5.499375	65.646873	21.949375
-183.244003	238.753998	1115.933960	11.913125	83.912498	19.814375
-67.404999	333.425995	1086.531982	10.325000	60.125626	30.213751
-1.281000	356.057007	870.958008	11.239375	57.417500	32.908749
-24.827000	354.653992	734.379028	6.973750	63.840000	16.611876
-55.144001	434.320007	587.491028	-5.263125	70.253754	9.681875
-119.438004	412.908997	566.690002	-17.854376	61.459999	12.696250
-197.639999	370.209015	560.773010	-10.438750	49.866249	22.933750
-256.139008	431.757996	520.268982	-12.241250	31.202499	27.610624
-175.619003	464.332001	602.375000	-12.000625	4.396875	14.892500
-341.661011	474.946014	627.263000	-6.868750	1.723750	6.628125
-302.255005	495.259003	691.374023	-8.671250	5.438125	8.592500
-465.613007	428.220001	787.692993	-6.020000	4.821250	8.693125
-418.093994	452.437012	811.361023	2.358125	2.861250	5.700625
-489.158997	410.225006	886.085999	3.828125	-7.599375	3.294375
-41.785000	171.410004	1122.461060	5.455625	4.108125	13.090000
-41.723999	211.731003	1093.729980	5.866875	7.301875	11.466875
-33.123001	213.012009	1085.250977	2.078125	0.183750	8.128750
-13.725000	219.660995	1087.141968	-3.416875	-5.013750	4.427500
10.187000	202.641998	1122.094971	-3.066875	-4.440625	3.355625
-52.826000	163.053009	1260.992065	-6.269375	-4.860625	4.847500
-52.826000	99.795998	1339.803955	-0.446250	-4.208750	6.728750
-166.285995	20.252001	1488.704956	8.054375	3.858750	14.743750
-208.436996	-13.054000	1545.739990	24.473749	0.306250	24.661875
-259.738007	13.054000	1617.292969	40.341873	-0.446250	32.060001
-147.436996	116.265999	1509.018066	51.550625	-3.416875	36.706249
-84.302002	221.552002	1401.901978	38.911251	5.385625	23.764999
-7.930000	258.457001	1349.015015	14.660625	16.730000	13.685000
12.749001	173.544998	1376.891968	1.181250	21.126875	14.100625
98.271004	232.897995	1271.789062	-0.682500	35.174999	6.978125
161.283997	236.375000	1296.311035	-5.705000	50.115623	3.495625
164.639008	252.540009	1258.490967	-16.629375	71.378128	11.624375
126.209000	297.192017	1082.322998	-10.526250	103.341873	7.695625
16.469999	252.845001	989.664001	-12.490625	117.591248	17.023125
-34.770000	348.066010	990.884033	-12.783750	96.398750	29.885626
-116.265999	299.144012	789.705994	-15.754375	87.928749	29.601250
-116.022003	333.975006	742.736023	-17.154375	49.752499	33.827499
-66.551003	353.494995	764.268982	-18.401251	19.726875	28.616875
-125.477005	416.873993	715.408020	-15.216250	11.641875	30.257500
-131.699005	395.829010	661.423035	-5.915000	-1.421875	31.438749
-132.003998	432.429016	753.593994	2.143750	-4.405625	31.548124
-149.938004	474.580017	673.562012	5.315625	11.414375	19.906250
-358.497009	462.075012	753.898987	0.490000	30.861250	20.860001
-254.370010	525.820007	689.056030	-2.275000	32.803749	9.388750
-428.708008	502.457001	744.139038	-2.992500	28.406876	9.266250
-371.123993	428.647003	784.887024	-2.371250	15.645000	13.925625
-513.497986	391.558990	899.811035	-1.133125	5.923750	10.276875
-438.101990	417.300995	895.479980	-1.780625	-5.166875	5.591250
-408.944000	332.144989	1001.986023	-1.802500	-12.473125	5.390000
-405.467010	372.282990	987.468018	2.935625	-4.738125	2.292500
-368.989014	344.222992	1000.400024	2.008125	-2.467500	-0.437500
-387.472015	324.641998	1007.536987	4.112500	7.004375	0.516250
-416.507996	347.882996	979.843018	4.081875	9.769375	-1.452500
88.389000	63.318001	1163.758057	-11.046875	-5.551875	-15.461250
96.441002	60.878002	1165.466064	-13.492500	-5.915000	-10.215625
110.776001	53.985001	1129.842041	-12.057500	-7.472500	-6.308750
117.425003	58.987000	1147.837036	-12.171250	-8.645000	-2.856875
148.718002	27.328001	1181.082031	-12.416250	-12.582500	-1.785000
177.998001	61.549000	1251.536987	-10.731875	-3.745000	-0.170625
160.917999	-35.868000	1350.234985	-13.431250	5.490625	2.708125
87.168999	-121.695000	1324.249023	-18.138750	1.347500	8.483125
110.227005	-282.490997	1511.823975	-5.298125	7.188125	17.749374
43.554001	-356.300995	1568.127075	10.902500	10.053750	20.330626
29.768000	-431.514008	1491.083984	17.959375	18.405624	25.344376
133.834000	-328.606995	1401.841064	32.996250	17.591875	20.365625
115.778000	-217.587006	1248.060059	18.816875	19.735624	24.298750
143.837997	-105.957001	1278.803955	-7.266875	13.230000	36.719376
129.807999	-100.223000	1265.628052	-13.291250	24.714375	24.491249
302.194000	-186.354996	1411.844971	-11.348750	38.622501	39.576248
186.843002	50.202999	1215.669067	-7.004375	59.115002	28.446251
59.779999	-117.547005	1323.578003	2.108750	58.773750	32.488750
242.414001	376.369995	1095.133057	17.679375	70.739372	25.086250
88.694000	153.658997	1054.873047	5.582500	97.440002	13.216875
82.411003	389.485016	1057.678955	-7.844375	93.616249	27.295626
5.856000	456.951019	770.613037	-36.986252	64.360626	41.978127
-47.763000	338.367004	848.754028	-80.329376	22.776251	54.105625
-58.499001	290.481995	732.914978	-81.344376	22.876875	60.838749
-193.553009	198.615997	766.953003	-74.703125	12.035625	48.352501
-175.557999	143.410995	822.707031	-55.851250	-7.039375	28.240625
-234.423004	104.371002	786.656006	-25.488750	-1.435000	25.213125
-196.237000	142.313004	797.635986	-10.771250	3.128125	13.737500
-248.819000	92.842003	835.760986	3.920000	0.306250	0.918750
-326.593994	77.592003	782.569031	7.980000	-0.966875	0.393750
-312.563995	9.089000	875.228027	1.894375	-11.847500	3.613750
-344.283997	-19.642000	936.350037	-2.839375	-20.807501	6.483750
-295.179016	-44.591000	1012.112000	7.931875	-24.189375	-1.732500
-255.529007	-34.892002	1077.931030	8.763125	-28.297501	-7.923125
-234.910995	-25.071001	1096.230957	3.167500	-22.588125	-7.695625
-213.805008	-69.540001	1121.363037	0.424375	-14.857500	-1.404375
-184.708008	-64.598999	1141.249023	-2.244375	-12.858125	-2.100000
-204.227997	-82.106003	1135.149048	-2.765000	-13.260625	-2.533125
267.667999	121.695000	1099.463989	4.926250	1.758750	6.636875
312.320007	108.640999	1101.537964	4.300625	0.345625	9.209375
297.679993	102.663002	1125.510986	2.957500	4.033750	9.611875
289.933014	74.969002	1123.131958	-0.691250	5.018125	13.024375
316.834015	-0.732000	1201.943970	-3.784375	2.620625	20.011250
301.096008	-99.979004	1267.640991	1.680000	10.377500	25.659374
249.612000	-131.393997	1384.760986	5.066250	10.010000	27.094376
249.612000	-128.953995	1427.765991	13.448750	19.267500	30.655624
180.621002	-105.957001	1464.061035	23.305626	31.036249	40.420624
224.236008	-39.711002	1490.229980	26.643749	26.389999	46.891251
223.138000	-8.418000	1458.388062	29.806875	31.215626	44.861252
172.020004	127.612000	1445.273071	28.218750	18.405624	38.539375
336.415009	171.897995	1368.352051	25.335625	12.368125	28.564375
366.244019	192.210999	1315.831055	30.139376	24.473749	16.323126
363.804016	252.662003	1185.291016	32.077499	42.293125	29.093750
421.510010	260.897003	1107.027954	28.161875	75.398750	24.609375
296.825989	356.300995	1034.133057	13.177500	93.051872	18.873751
194.651001	319.822998	930.554993	-0.857500	89.337502	35.468124
109.738998	305.731995	926.101990	-5.442500	70.835625	42.113750
59.658001	361.058990	930.554993	-3.320625	56.131248	39.794998
70.638000	422.608002	810.629028	-4.348750	28.673750	33.687500
21.228001	405.406006	863.088989	-8.242500	7.581875	33.451248
27.999001	421.510010	807.822998	-7.485625	14.188125	13.098750
-31.537001	382.653015	756.400024	-2.611875	42.542500	-5.035625
-225.395004	397.720001	699.121033	-0.730625	52.941875	-0.428750
-100.040001	316.712006	760.059998	-2.445625	28.695625	2.078125
-108.519005	308.476990	746.945007	0.730625	13.173125	5.398750
-166.225006	274.622009	801.723022	8.050000	8.190000	5.534375
-191.479004	238.998001	878.643982	3.578750	2.441250	8.474375
-185.013000	302.804016	921.710022	3.578750	-1.955625	2.913750
-220.942001	282.429993	992.531006	3.228750	-1.955625	2.913750
-220.942001	315.369995	1033.828003	3.832500	-5.149375	3.386250
-190.076004	315.369995	1033.828003	-3.902500	-8.649375	2.940000
-228.322998	304.817017	1054.873047	0.218750	-2.244375	1.535625
-216.184006	298.838989	1075.003052	-1.238125	-4.908750	0.336875
-235.582001	282.186005	1079.516968	-4.208750	-6.986875	5.381250
-169.518997	271.144989	1076.284058	-5.600000	-6.671875	8.662500
-183.731995	245.281006	1087.508057	-2.301250	-4.361875	3.303125
313.722992	-144.630997	1130.146973	-2.034375	-1.295000	-5.031250
325.130005	-185.257004	1080.310059	-5.254375	5.674375	-8.356250
287.127014	-160.003006	1115.873047	-2.073750	14.411250	-9.476250
283.772003	-139.141006	1106.479004	-0.328125	12.547500	-8.815625
267.667999	-128.710007	1078.419067	-6.055000	9.568125	-6.160000
323.117004	-187.453003	1155.828003	-11.248125	8.028125	3.906875
302.316010	-391.742004	1276.242065	-11.637500	8.675625	15.995000
256.809998	-452.253998	1398.852051	-8.050000	2.060625	19.626249
277.855011	-501.664001	1484.312988	-5.096875	-2.161250	27.501249
338.306000	-573.827026	1408.734009	-1.098125	10.543750	41.212502
343.856995	-641.781006	1473.577026	21.735001	37.209373	51.541874
251.197998	-412.115997	1276.912964	33.775002	95.011871	49.319374
145.057999	-355.386017	1384.700073	12.941250	108.254997	50.338749
57.889000	-292.312012	1315.831055	-9.502500	78.714996	67.077499
160.917999	-265.838013	1279.901978	-33.569374	36.365002	91.380623
166.835007	-216.001007	1131.977051	-27.951876	21.192499	89.280624
82.167000	-182.634003	1010.221008	-31.084375	30.165625	66.998749
12.505000	-171.287994	1076.954956	-21.883751	7.945000	55.746250
201.361008	-96.989998	1006.927002	15.356250	3.167500	51.038750
68.869003	2.257000	901.031006	40.564999	24.368750	50.933750
68.197998	85.583000	872.544006	36.955624	17.548124	52.084373
34.526001	116.998001	810.567993	12.691875	13.168750	50.273125
-20.434999	179.828003	820.999023	-9.677500	32.348751	50.605625
-72.223999	163.602005	812.703003	-23.620625	44.747501	48.133751
-79.971001	131.759995	820.267029	-16.712500	26.232500	40.761875
-151.341003	107.787003	840.275024	-1.010625	10.591875	23.309999
-129.014999	162.809006	862.479004	10.438750	-7.761250	11.926250
-216.733002	115.900002	865.651001	12.411875	-3.298750	8.990625
-204.227997	158.234009	969.533997	11.396875	0.013125	3.150000
-315.980011	100.223000	985.515991	10.456250	-1.203125	0.888125
-254.003998	80.764000	1035.718994	6.453125	-2.366875	3.403750
-286.212006	73.504997	1072.685059	5.026875	-7.341250	-1.820000
-273.890015	14.945000	1084.579956	-4.563125	-8.723750	0.323750
-233.447006	-17.446001	1092.083008	-7.319375	-10.736250	-4.274375
-243.451004	-58.621002	1075.063965	-6.326250	-9.598750	-6.247500
-201.544006	-62.464001	1098.061035	-7.555625	-10.482500	-4.961250
-215.085999	-71.796997	1088.911011	-4.646250	-8.006250	-5.267500
-175.740997	-81.923004	1086.776001	-5.136250	-6.155625	-3.946250
208.436996	10.431000	1174.005981	-2.638125	-8.815625	-6.781250
240.462006	-30.561001	1151.009033	-2.703750	-4.838750	-3.447500
211.182007	-43.798000	1130.329956	-3.027500	4.996250	-3.644375
193.248001	-42.577999	1099.952026	0.721875	8.465625	-0.030625
206.667999	-28.548000	1095.316040	1.137500	1.964375	1.360625
208.132004	-85.827003	1128.622070	0.201250	-1.229375	2.065000
157.867996	-144.875000	1226.893066	3.246250	-6.221250	0.043750
158.966003	-274.195007	1372.561035	6.925625	-13.794375	1.316875
130.417999	-357.093994	1489.802979	13.356875	-12.893125	5.726875
102.053001	-405.528015	1550.985962	13.356875	-12.893125	11.195625
102.053001	-323.117004	1564.771973	24.473749	-14.227500	11.195625
250.039001	-323.117004	1564.771973	38.368752	-12.600000	18.252501
260.165009	-202.886002	1532.563965	35.910000	-2.528750	31.674999
339.830994	-170.678009	1505.296997	29.343124	9.905000	41.278126
384.910004	-81.008003	1331.874023	25.690001	41.505627	26.796875
420.595001	6.161000	1279.353027	13.396250	56.345627	27.334999
433.222015	2.806000	1134.416992	11.668125	77.161873	55.365623
401.257996	-40.931000	1018.028992	11.633125	86.051872	68.565002
268.460999	172.507996	921.588013	10.626875	86.209373	69.098747
213.438995	217.038010	956.785034	6.343750	86.778122	69.776878
106.384003	276.330017	905.971985	1.916250	82.508125	57.430626
-40.077000	266.875000	905.484009	-19.748751	56.590626	43.058750
32.574001	340.014008	897.859009	-31.180626	17.272499	36.378124
-21.899000	316.528992	913.780029	-45.889374	-16.716875	31.268126
102.113998	345.382019	830.270996	-30.953125	-23.331875	24.010000
74.237000	395.097015	773.052979	-16.445625	19.389999	6.711250
-24.948999	289.933014	871.507019	-17.145624	47.941250	2.699375
-35.075001	268.095001	922.259033	-11.436250	48.667500	7.166250
-233.447006	137.311005	988.017029	0.774375	34.195000	12.180000
-129.563995	136.639999	950.075012	3.959375	19.923750	9.520000
-250.649002	108.519005	959.346985	2.848125	21.962500	6.199375
-251.076004	95.526001	963.129028	-1.500625	22.277500	7.376250
-291.397003	62.464001	982.770996	-3.425625	9.664375	6.111875
-322.201996	43.188000	1025.654053	-2.926875	0.021875	6.628125
-268.826996	47.640999	1014.125000	-0.647500	-1.911875	0.551250
-316.712006	49.410000	1063.656982	-0.993125	-5.512500	2.502500
-242.048004	48.678001	1060.424072	-2.139375	-5.530000	6.588750
-249.063004	31.720001	1078.906982	-1.067500	-6.278125	3.145625
355.386017	-295.057007	1149.789062	-2.891875	-35.166248	-18.904375
355.996002	-244.305008	1183.583008	-2.668750	-20.606251	-17.058125
359.472992	-248.514008	1178.214966	-7.603750	-14.223125	-11.077500
325.984009	-223.443008	1136.247070	-9.489375	-8.045625	-9.139375
305.976013	-219.539001	1102.270020	-4.943750	-2.012500	-7.406875
339.160004	-230.518997	1110.870972	1.395625	-0.695625	-3.377500
350.018005	-284.808990	1148.325073	2.953125	-2.231250	-1.146250
326.045013	-445.178009	1284.050049	13.011250	-0.100625	2.056250
379.725006	-521.427979	1337.425049	18.834375	6.829375	6.203750
399.367004	-716.567017	1617.109985	26.018126	14.091875	20.719999
404.002991	-719.434021	1535.248047	32.418751	30.200624	22.776251
377.162994	-571.630981	1465.159058	32.838749	40.101250	42.131248
387.593994	-575.962036	1447.164062	45.320625	45.005627	79.511253
352.824005	-315.858002	1059.203979	59.889374	58.213749	84.319374
324.459015	-214.781006	1354.322021	39.453751	62.947498	91.367500
372.466003	-67.649002	1154.485962	22.356251	71.540001	78.448128
241.255005	39.161999	1129.049072	-24.395000	58.266251	73.298752
438.589996	-132.858002	1181.265015	-32.003124	32.606876	73.989998
252.540009	-0.549000	980.392029	-17.679375	32.011875	53.790627
269.742004	-23.485001	1081.591064	-30.498125	22.413124	49.840000
263.214996	37.820000	879.864014	-29.102501	4.046875	42.520626
61.243999	-76.189003	958.676025	-20.965000	-14.923125	48.641251
240.645004	235.826004	946.293030	-10.526250	2.165625	21.875000
142.069000	204.837997	695.765991	-1.426250	62.247501	22.693125
40.443001	30.988001	839.665039	9.038750	82.958748	24.163124
33.000999	232.166000	640.012024	17.123751	52.639999	16.401875
-229.604004	-23.485001	847.595032	10.167500	21.914375	26.783751
-100.223000	112.484001	864.004028	9.130625	2.393125	15.531250
-207.156006	177.205002	851.072021	6.776875	-6.234375	-4.033750
-201.971008	128.343994	940.742004	-0.730625	-2.629375	-5.954375
-214.537003	138.714005	963.372986	-4.138750	-2.191875	6.829375
-178.059006	-18.666000	1010.281982	-8.325625	-6.641250	14.004375
-101.748001	-25.559000	1049.383057	-9.349375	-12.263125	4.348750
-140.848999	-128.649002	1071.587036	-6.002500	-15.645000	2.117500
-90.097000	-117.973999	1119.838013	-5.101250	-15.561875	-2.183125
-109.922005	-126.086998	1132.526001	0.546875	-8.111250	-4.208750
-106.932999	-124.806000	1114.469971	-1.960000	-3.031875	-1.623125
-123.952003	-120.841003	1133.441040	-2.327500	-0.752500	0.315000
265.959991	-109.800003	1097.511963	8.312500	-8.754375	10.543750
279.502014	-118.889000	1079.943970	2.498125	-8.211875	3.255000
247.781998	-97.783005	1108.614014	0.013125	-0.393750	-0.280000
270.778992	-104.371002	1119.716064	0.463750	-1.421875	-0.245000
255.834000	-108.702003	1152.046021	-0.713125	-2.611875	3.806250
255.102005	-165.492996	1173.213013	1.242500	-0.367500	6.431250
280.416992	-274.377991	1309.060059	6.133750	-3.500000	10.276875
255.406998	-433.466003	1448.261963	9.673125	-2.616250	17.215626
300.119995	-527.283997	1618.573975	35.678123	-0.966875	16.660000
343.674011	-400.098999	1636.568970	41.833752	-28.704374	22.089375
439.016998	-386.862000	1389.946045	40.906250	-28.726250	34.566875
458.781006	-287.127014	1352.065063	32.606876	-9.428125	40.578125
422.242004	-179.706009	1230.369995	19.035625	29.071875	43.211876
502.822998	-156.343002	1072.380005	15.636250	65.712502	39.536877
367.769012	-40.443001	1095.010986	-12.171250	54.407501	45.613750
457.744019	-67.892998	1148.447021	-7.061250	57.736874	55.514374
381.860016	120.963005	1041.391968	-5.757500	74.825623	48.960625
157.684998	118.706001	1191.940063	-6.615000	68.201874	66.010002
250.832001	218.319000	1113.982056	-1.706250	47.193127	62.593124
229.665009	160.125000	975.023987	-10.867500	29.496250	49.271252
244.732010	176.167999	884.012024	-10.841250	28.293125	43.076248
249.063004	196.847000	823.377991	-5.127500	40.617500	45.828125
147.436996	191.113007	806.541992	9.126250	56.914375	49.770000
74.969002	246.745010	781.958984	6.973750	63.726250	33.967499
-196.969009	197.762009	771.466980	1.763125	54.853748	26.897499
-101.748001	114.009003	893.406006	-10.080000	26.967501	32.606876
-196.908005	74.114998	895.601990	-10.749375	0.376250	23.056250
-172.569000	82.289001	965.447021	-13.238750	-13.448750	22.229376
-121.329002	100.833000	983.625000	-12.254375	-6.820625	11.834375
-164.151001	139.263000	996.374023	-8.907500	7.210000	6.028750
-184.830002	100.833000	1005.585022	-10.788750	3.771250	4.891250
-172.996002	28.609001	1031.631958	-7.196875	-3.180625	11.230625
-158.234009	20.923000	1057.495972	-7.188125	2.905000	4.834375
-183.061005	14.701000	1095.255005	-0.879375	8.133125	1.185625
-198.250000	-19.764000	1070.367065	3.215625	9.261875	-0.196875
-196.298004	-8.540000	1095.255005	0.940625	3.486875	-0.625625
-178.181000	-29.097000	1078.846069	-3.110625	-0.183750	-0.118125
-197.395996	-33.306000	1073.172974	-2.948750	4.755625	-3.281250
272.364990	-103.090004	1143.445068	-0.927500	-5.608750	-0.761250
279.075012	-107.604004	1133.685059	1.408750	-2.305625	3.198125
249.124008	-132.309006	1133.868042	1.815625	1.159375	6.715625
238.570999	-161.162003	1151.984985	4.939375	0.651875	9.095625
250.222000	-144.447998	1144.299072	6.335000	-0.822500	11.147500
259.067017	-274.804993	1262.516968	7.490000	-4.344375	17.360001
216.001007	-420.351013	1423.191040	13.505625	-0.923125	25.602501
216.184006	-491.964996	1533.784058	25.934999	9.730000	33.595627
259.250000	-518.072998	1530.978027	39.038124	14.170625	47.079376
285.723999	-468.296997	1469.978027	53.042500	21.686874	57.719376
325.679016	-373.929993	1382.931030	49.896873	27.951876	55.072498
310.489990	-188.490005	1280.938965	37.310001	32.471249	48.020000
311.222015	19.093000	1236.896973	30.568125	24.535000	44.935623
403.576019	-2.257000	1274.473022	-4.694375	7.402500	51.944374
465.308014	74.054001	1169.675049	-11.716250	25.466875	48.230000
413.153015	-18.910000	1254.343018	-7.988750	52.053749	66.561249
397.476013	121.512001	1169.552979	-14.669375	73.950623	55.365623
143.044998	49.348999	1137.527954	-11.147500	69.943123	53.204376
313.783997	109.556000	1066.218994	-11.147500	42.717499	55.991249
280.966003	155.061996	950.441040	-8.308125	42.717499	55.991249
280.966003	155.061996	864.309021	-3.141250	40.810001	53.226250
279.868011	175.619003	864.309021	-3.780000	36.115623	39.020626
171.410004	275.537018	785.436035	-6.496875	36.815624	33.219376
73.931999	319.761993	741.638000	-0.385000	39.191250	36.181252
-42.028999	297.863007	759.267029	2.178750	38.985626	26.433750
-105.286003	295.239990	791.780029	2.743125	42.253750	26.989374
-127.063004	231.921997	783.423035	6.352500	51.607498	19.958750
-239.363998	200.934006	826.428040	5.713750	41.868752	12.582500
-264.312988	190.137009	771.101013	0.043750	17.298750	5.700625
-274.195007	97.356003	908.533997	-4.116875	-1.894375	6.685000
-282.125000	83.082001	915.427002	-4.134375	-2.843750	5.140625
-257.359009	43.615002	999.973022	-4.046875	-15.575000	1.855000
-210.328003	24.156000	1053.652954	-1.286250	-17.399376	1.824375
-205.509003	26.230000	1101.171997	3.141250	-11.169375	1.141875
-169.763000	1.525000	1107.211060	0.052500	-11.488750	1.360625
-148.901001	25.437000	1106.296021	-1.833125	-1.898750	0.083125
-200.628998	36.722000	1108.248047	1.067500	5.149375	-4.576250
-194.163010	37.576000	1095.499023	-2.218125	1.925000	-5.525625
192.699005	-111.569000	1184.315063	5.184375	-16.808750	0.332500
152.072998	-120.719002	1169.369995	1.395625	-11.873750	2.047500
115.717003	-64.965004	1178.093018	0.105000	-2.555000	-6.518750
81.618004	-18.910000	1125.633057	-2.025625	7.577500	-13.343750
88.511002	-2.196000	1128.011963	-2.463125	7.791875	-9.257500
139.141006	-95.526001	1243.851074	0.240625	2.209375	0.271250
145.850998	-190.686005	1407.208984	7.052500	-2.432500	8.439375
129.563995	-411.994019	1639.680054	15.929375	-8.815625	22.924999
117.913002	-386.679016	1601.555054	37.821877	0.140000	28.708750
167.078995	-328.179993	1554.768066	37.988125	9.279375	34.334999
182.755997	-250.587997	1485.776978	36.662498	5.648125	47.901875
185.134995	-166.225006	1392.874023	25.812500	0.371875	42.647499
339.037994	105.469002	1341.268066	6.510000	-8.207500	32.541248
302.864990	67.527000	1382.808960	-0.065625	4.886875	43.767502
321.774994	157.136002	1086.044067	-11.930625	60.878124	28.971251
263.214996	149.511002	1061.094971	-35.914375	83.125000	38.644375
364.231018	110.836998	1036.695068	-27.190624	95.353127	53.571877
238.143997	158.722000	965.080994	-18.165001	91.157501	62.881874
73.139000	177.570999	972.645020	-17.355625	50.815624	69.181877
291.824005	284.260010	953.064026	-14.380625	38.753750	63.599377
-6.832000	234.240005	977.525024	-18.466875	42.918751	55.002499
-54.167999	378.627014	922.869019	-7.936250	25.698750	35.945000
-6.222000	279.196991	1010.770020	-12.438125	14.503125	38.132500
-32.513000	207.826996	998.143005	-10.683750	27.212500	58.944374
-51.728001	132.675003	872.421997	1.032500	44.283749	30.423750
-117.730003	189.649002	832.466980	5.215000	51.743126	1.351875
-197.029999	203.251999	770.552002	5.565000	49.030624	6.129375
-287.798004	128.404999	792.207031	-2.288125	28.669374	20.619375
-254.858002	163.053009	781.593018	-10.443125	19.013750	17.281250
-388.386993	147.986008	834.174988	-9.712500	15.071875	-0.778750
-386.496002	180.804001	887.367004	-8.063125	9.034375	-7.450625
-359.778015	133.834000	938.729004	-11.165000	-0.017500	-3.460625
-384.605011	140.604996	1022.177002	-8.732500	-5.118750	-2.642500
-306.830017	99.490997	988.932007	-3.626875	-3.723125	0.280000
-363.743011	6.466000	1065.670044	-4.326875	-10.543750	1.732500
-320.127991	85.155998	1049.810059	-1.181250	-13.706875	-1.688750
-297.740997	1.891000	1075.369019	0.765625	-9.410625	-2.848125
-323.726990	40.564999	1073.112061	-2.524375	-4.681250	-2.506875
79.361000	-34.221001	1192.733032	-4.856250	1.281875	-0.752500
103.151001	-50.142002	1217.987061	2.436875	2.913750	-0.126875
90.219002	-76.311005	1238.848999	-0.813750	-5.333125	1.483125
106.139999	-125.903999	1301.130005	-0.634375	-2.598750	9.795625
48.007000	-245.158997	1361.764038	4.838750	13.912500	16.318750
35.685001	-288.591003	1452.287964	10.688125	12.665625	16.782499
71.065002	-293.959015	1474.187012	17.709999	-9.773750	28.472500
87.961998	-325.252014	1463.572998	19.665625	-23.397499	30.432501
128.649002	-157.501999	1409.161011	20.759375	-27.969376	31.670626
198.555008	-185.501007	1345.050049	4.755625	-19.459999	38.596249
304.145996	-39.101002	1335.107056	12.048750	7.818125	39.755627
287.309998	41.907001	1274.777954	3.731875	60.243752	44.738750
274.072998	122.670998	1255.624023	-0.494375	91.778748	41.343750
196.175995	70.455002	1241.472046	-11.668125	87.819374	42.078751
193.248001	133.834000	1282.036987	-13.116250	60.742500	38.683750
67.344002	102.601997	1110.443970	-5.175625	66.500000	42.105000
11.163000	87.961998	1156.316040	-5.639375	63.914375	59.290001
209.108002	137.432999	1004.609009	1.343125	53.239376	54.035625
-23.180000	103.944000	889.684998	-6.676250	68.831879	45.880627
62.159000	288.041992	829.905029	-28.892500	51.226875	31.731874
-47.702000	204.044998	740.966980	-34.208126	54.656876	16.130625
-164.029007	319.945007	843.080994	-31.049376	36.846249	4.878125
-92.170998	369.233002	734.317993	-18.939375	10.408125	14.717500
-137.128006	247.660004	812.398010	-2.038750	18.948126	5.088125
-164.272995	280.782990	729.559998	-0.231875	28.975624	1.789375
-321.347992	152.622009	905.789001	-10.084375	12.302500	18.856251
-330.803009	93.025002	842.898010	-1.706250	31.421249	9.830625
-407.601990	54.107002	931.226013	5.805625	23.476250	8.058750
-394.914001	42.882999	953.002991	3.784375	-1.360625	5.578125
-379.175995	99.917999	985.638000	7.669375	1.911875	-2.585625
-410.407990	79.361000	1017.601990	2.030000	-10.053750	4.064375
-361.181000	41.541000	1005.218994	-1.776250	-4.974375	4.760000
-353.007019	50.691002	1030.473022	4.917500	-2.375625	-0.183750
-368.074005	-3.111000	1045.296021	3.609375	-8.544375	3.661875
-365.817017	21.289000	1039.013062	2.603125	-8.802500	-0.472500
-372.282990	-7.076000	1040.660034	1.260000	-4.361875	-1.426250
-363.864990	60.084999	1031.448975	-2.489375	-2.100000	-4.637500
-334.524017	83.509003	1027.239990	-2.336250	-5.280625	-3.644375
177.083008	-86.742004	1176.750977	10.421250	-2.480625	1.850625
155.001007	-121.389999	1232.626953	10.640000	-2.550625	1.806875
165.371002	-104.188004	1197.430054	18.256874	0.301875	4.878125
158.417007	-72.590004	1186.145020	20.352501	2.196250	11.256875
106.445000	-57.950001	1200.968018	22.898750	5.280625	15.185625
202.703003	-83.875000	1373.598022	16.288124	9.257500	17.430000
149.632996	-230.031006	1495.354004	7.459375	1.513750	16.878750
232.837006	-172.141998	1536.041016	21.931875	12.499375	22.719376
265.350006	-194.529007	1640.411987	17.683750	-8.767500	25.230625
191.966995	-97.051003	1533.296021	43.351875	-34.671875	22.859375
328.302002	23.668001	1314.062012	46.970001	-34.794376	19.376875
328.790009	134.871002	1241.655029	22.185625	-4.781875	12.276250
458.658997	111.813004	1132.891968	1.185625	53.514999	9.283750
282.368988	90.097000	1048.529053	-17.766874	80.801872	10.784375
272.121002	191.479004	1092.265991	-24.040625	83.790001	25.020624
305.976013	123.769005	991.067017	-20.733126	79.581253	50.019375
229.115997	160.125000	957.333984	-28.980000	63.647499	54.166874
112.789001	201.238998	987.101990	-27.216875	65.813126	82.516876
75.701004	176.350998	930.189026	0.240625	73.911247	71.014999
-228.688995	291.640991	1000.827026	1.776250	53.077499	18.353125
-51.789001	356.300995	954.772034	-5.464375	31.049376	13.601875
-45.688999	271.877014	856.928040	-7.853125	36.198750	11.908750
-110.043999	362.339996	773.419006	-6.164375	46.921875	10.123750
-117.791000	248.880005	860.527039	-3.521875	45.530624	15.050000
-204.289001	199.348007	866.017029	5.919375	18.283125	18.410000
-139.568008	288.041992	867.054016	10.290000	20.435625	8.859375
-217.647995	214.048996	887.122986	8.194375	22.614374	13.015625
-201.178009	222.100998	825.817993	-1.583750	17.027500	7.096250
-307.928009	170.800003	931.958008	1.246875	11.252500	5.761875
-274.256012	158.660995	899.262024	-1.798125	1.238125	8.273125
-316.894989	164.151001	1018.090027	-5.416250	-3.924375	1.981875
-280.050995	158.966003	1017.846008	-3.189375	-3.981250	3.780000
-315.126007	132.065002	1070.000977	-2.436875	-9.738750	3.325000
-302.559998	118.706001	1094.523071	0.210000	-14.380625	3.867500
-257.175995	119.804001	1079.212036	3.220000	-5.306875	0.402500
-276.451996	154.513000	1092.998047	2.607500	-3.460625	-1.540000
-223.443008	158.660995	1061.277954	1.413125	0.520625	0.214375
-288.774017	149.999008	1039.135010	1.824375	4.930625	-1.176875
164.212006	42.882999	1146.556030	-19.468750	-6.230000	-24.206875
168.177002	41.358002	1138.077026	-14.533750	-9.546250	-28.551250
253.943008	-17.629000	1176.019043	-10.998750	-15.032500	-21.629999
252.783997	-5.002000	1163.575073	-0.490000	-3.180625	-10.456250
245.158997	-28.365000	1163.758057	7.936250	9.073750	-3.950625
183.610001	25.925001	1106.113037	9.821875	16.078125	2.603125
142.557007	-141.093002	1327.421021	14.743750	2.450000	6.584375
175.192001	-150.242996	1377.075073	17.154375	-10.561250	0.109375
180.132996	-289.750000	1538.114990	12.928125	-6.571250	15.225000
151.889999	-340.136017	1545.801025	27.282499	8.575000	17.150000
149.694000	-301.766998	1440.270996	30.743126	26.683125	24.587500
107.299004	-130.052002	1174.250000	37.253124	26.258751	27.951876
118.096001	-50.751999	1122.765991	30.725624	13.488125	39.961250
220.514999	68.807999	1333.032959	11.445000	0.323750	60.108124
408.761017	8.906000	1155.035034	3.836875	8.338750	53.239376
451.278015	77.165001	1379.270996	2.970625	18.165001	53.353127
442.067017	153.964005	1200.906982	23.344999	45.709999	29.531250
509.289001	293.776001	1242.020996	-7.376250	54.976250	26.337500
410.347015	244.244003	1196.697998	-4.593750	79.410622	24.696875
153.658997	269.315002	1007.231995	6.938750	102.497498	20.282499
-123.708000	232.959000	1155.035034	5.193125	82.320000	38.329376
184.708008	320.615997	1080.737061	21.538124	61.066250	39.283127
71.736000	253.455002	922.442017	25.335625	85.793747	31.605000
80.581001	330.985992	913.596985	20.291250	86.738747	20.623751
-16.958000	334.829010	722.971985	6.291250	87.158752	15.474375
-215.513000	306.158997	826.794006	-5.127500	76.676247	34.693748
-100.100998	354.653992	621.590027	-2.568125	48.098751	29.513750
-336.110016	298.960999	735.965027	-4.331250	24.062500	29.001875
-178.303009	364.109009	680.333008	2.756250	19.271875	15.299375
-277.244995	349.041992	748.408997	3.740625	17.946251	3.736250
-274.195007	384.848999	755.484985	-1.001875	13.286875	1.706250
-308.294006	383.690002	852.109009	-3.045000	3.749375	0.958125
-350.567017	285.296997	899.505981	-3.683750	3.959375	2.117500
-353.190002	342.088013	919.330994	-0.227500	4.038125	-2.970625
-387.838013	275.597992	994.421997	2.856875	-0.708750	-0.809375
-406.260010	310.673004	997.411011	3.132500	0.599375	0.940625
-403.942017	294.873993	1031.571045	3.500000	-6.199375	-0.459375
-387.472015	255.041000	1061.888062	2.638125	-5.941250	0.748125
-372.222015	307.623016	1039.500977	4.165000	-1.920625	-1.583750
-354.348999	260.713989	1040.416016	3.338125	-0.940625	-2.970625
-352.946014	257.298004	1021.505981	1.391250	2.655625	-3.189375
-375.699005	262.971008	994.117004	3.780000	5.766250	-6.654375
-371.795013	238.205002	983.259033	3.535000	4.668125	-7.122500
-387.106018	253.150009	975.207031	3.399375	1.815625	-4.375000
-394.243011	239.242004	986.614014	4.738125	-1.054375	-4.768750
-378.809998	261.628998	984.174011	3.578750	-3.381875	-4.668125
-389.240997	264.434998	992.286987	1.474375	-6.081250	-1.929375
-386.191010	236.375000	1024.190063	0.953750	-5.271875	-3.832500
-381.677002	270.169006	1009.794006	0.914375	-2.975000	-2.695000
-395.768005	234.362000	1023.702026	-0.546875	-2.305625	0.109375
-389.972992	243.695007	1020.652039	-0.013125	-1.671250	-2.751875
-390.033997	246.867004	998.143005	0.971250	-1.618750	-1.496250
-381.677002	220.027008	1012.112000	-0.673750	-3.552500	0.157500
