A_X[mg]	A_Y[mg]	A_Z[mg]	G_X[dps]	G_Y[dps]	G_Z[dps]	
230.091995	-92.232002	1094.889038	2.725625	-9.520000	-4.121250
245.951996	-82.349998	1092.631958	2.568125	-5.744375	-3.071250
229.482010	-81.374001	1088.484009	2.506875	-2.716875	-0.621250
231.921997	-89.609001	1116.910034	2.253125	-6.330625	-0.078750
233.751999	-32.695999	1186.266968	2.918125	-9.979375	-1.820000
228.505997	114.375000	1438.441040	-4.475625	-8.859375	3.246250
198.738007	200.263000	1779.248047	-11.777500	-0.857500	11.274375
175.619003	324.519989	1867.332031	-11.694375	5.241250	15.793750
177.753998	332.755005	1830.671021	-1.561875	26.998125	0.945000
242.475006	267.302002	1650.598999	16.388750	49.503124	-18.453751
291.458008	333.731018	1662.494019	9.515625	70.148750	-44.721249
516.853027	102.846001	1433.317017	-14.315000	92.771873	-26.258751
325.862000	-63.623001	1199.138062	-2.817500	128.576874	-10.355625
205.509003	-212.829010	1186.083984	-3.014375	103.101250	-23.961876
180.987000	-268.949005	961.908997	19.000626	41.422501	-33.954376
170.128998	-141.337006	884.866028	34.781250	22.824375	-68.967499
125.843002	-245.525009	724.924011	30.970625	24.902500	-82.263123
85.948997	-220.027008	741.882019	31.342501	21.949375	-79.165627
63.257000	-204.472000	700.096985	26.617500	27.934376	-72.148125
-89.121002	-169.884995	791.414001	14.765625	41.973751	-62.562500
-84.119003	-235.947998	770.247009	1.400000	16.830626	-50.566250
-184.037003	-195.992996	783.362000	-2.209375	12.477500	-41.212502
-62.952000	-275.720001	759.267029	-10.801875	18.965626	-43.474377
-139.445999	-280.112000	795.135010	-9.594375	0.358750	-18.716249
-158.844009	-248.391998	780.556030	-10.718750	14.218750	-25.112499
-231.128998	-195.626999	868.091003	-13.308750	11.383750	-12.656875
-195.261002	-190.380997	913.780029	-8.233750	3.220000	-10.294375
-285.846008	-140.727005	978.074036	-13.041875	10.981250	-8.592500
-236.009003	-161.040009	1000.460999	-10.640000	6.601875	1.789375
-327.692017	-154.391006	1041.331055	-3.381875	1.754375	-3.045000
-250.466003	-148.169006	1030.717041	-0.848750	-4.585000	-1.596875
-265.350006	-135.908005	1056.641968	4.033750	-11.707500	-3.631250
-197.822998	-120.902000	1072.258057	3.224375	-16.178749	-4.952500
-201.178009	-120.779999	1099.098022	-0.153125	-15.343125	-4.130000
-168.725998	-117.668999	1098.975952	-0.756875	-11.068750	-4.733750
-201.056000	-94.367004	1089.643066	-3.670625	-6.133750	-0.966875
194.895004	103.028999	1181.020996	0.546875	-18.987499	6.619375
186.477005	66.184998	1177.910034	0.905625	-8.964375	-2.480625
157.929001	78.080002	1131.550049	5.740000	-4.838750	-6.938750
177.815002	81.923004	1125.510986	3.320625	-15.916250	-5.228125
215.147003	46.726002	1153.144043	4.956875	-21.953751	-3.325000
217.160004	87.413002	1147.471069	4.033750	-9.082500	-4.217500
189.404999	127.551003	1165.526978	4.541250	-6.737500	-3.093125
154.940002	183.975998	1286.978027	4.580625	-2.498125	0.840000
148.291000	312.015015	1476.260986	-1.413125	7.791875	5.950000
77.287003	353.373016	1610.217041	-12.337500	12.906250	10.119375
-10.431000	394.548004	1680.977051	-28.988750	12.722500	11.208750
11.529000	482.510010	1596.187012	-46.908749	17.119375	16.983749
83.447998	296.459991	1540.921021	-66.670624	9.012500	23.235624
285.358002	117.913002	1316.928955	-59.167500	18.217501	18.208750
139.141006	113.582001	1222.073975	-28.866249	36.093750	-7.931875
268.826996	96.258003	1186.693970	-22.316875	25.195625	-23.730000
353.739014	54.473000	1128.195068	-5.311250	46.619999	-30.633751
193.309006	53.192001	1134.295044	3.303125	67.287498	-42.424374
250.587997	-107.665001	1137.344971	6.693750	39.221874	-38.889374
164.272995	-142.862000	1158.328979	10.710000	16.261875	-38.771252
304.877991	-202.520004	1090.619019	20.982500	13.483750	-45.093124
250.283005	-216.916000	1029.802002	18.843124	20.851250	-47.403126
157.380005	-206.057999	877.606995	15.251250	41.221249	-38.941875
43.126999	-152.438995	909.265991	6.291250	38.325001	-45.941875
19.703001	-215.330002	788.913025	-16.340626	29.995001	-33.845001
-60.512001	-149.022995	837.713013	-16.935625	29.859375	-26.862499
-16.592001	-288.652008	806.054016	-9.187500	18.830000	-18.825624
-35.136002	-228.872009	763.293030	-10.521875	18.055626	-21.345625
-86.620003	-272.364990	807.152039	-1.400000	16.834999	-15.001875
-49.105000	-297.009003	802.882019	4.060000	4.738125	-16.104376
39.771999	-221.063995	854.793030	1.605625	-0.984375	-3.718750
-221.430008	-144.326004	975.268005	2.913750	4.900000	14.525000
-284.260010	-203.434998	1001.070984	-2.655625	19.735624	-0.665000
-301.218018	-169.763000	996.496033	-17.211250	14.463750	-5.582500
-191.052002	-185.195999	1027.605957	-12.950000	-1.990625	-4.396875
-167.567001	-173.850006	999.484985	-9.638125	-5.390000	-4.182500
-197.518005	-149.999008	1045.296021	-5.840625	1.723750	5.783750
-196.664001	-159.270996	1055.544067	-2.056250	-5.035625	0.595000
69.967003	201.848999	1196.942017	25.825624	-49.533749	-15.723750
61.792999	302.498993	1264.347046	21.520624	-48.829376	-15.627500
159.514999	259.677002	1192.244995	16.060625	-39.068748	-6.238750
153.292999	269.681000	1221.952026	7.100625	-22.999374	-3.666250
183.488007	215.635010	1167.723022	-1.491875	-4.646250	-1.973125
187.574997	186.964996	1137.771973	-0.831250	8.881250	3.469375
155.428009	155.916000	1160.036987	6.925625	9.541875	2.633750
99.979004	209.413010	1172.297974	14.157500	-0.621250	1.973125
101.992004	295.545013	1221.098022	12.871250	-6.457500	0.984375
118.461998	427.915009	1309.182007	12.871250	-6.457500	0.984375
118.461998	427.915009	1374.756958	0.297500	-4.099375	0.367500
115.900002	474.701996	1374.756958	-5.394375	8.605625	1.513750
50.142002	573.705017	1445.639038	-15.968750	17.998751	-1.365000
122.975998	605.851990	1394.947998	-25.860624	29.378124	-3.640000
65.209000	571.692017	1424.228027	-24.478125	33.840626	1.623125
185.684006	366.488007	1439.722046	-18.090626	42.866249	0.966875
114.131004	409.920013	1263.920044	-9.541875	69.173126	-31.714375
-66.917000	271.694000	1267.640991	-16.056250	80.447502	-46.431873
-10.370000	12.871000	1271.666992	-19.131874	76.138123	-11.738125
-108.335999	54.656002	1251.476074	-9.870000	70.061249	-19.569374
-123.708000	37.453999	1211.520996	-12.088125	50.168125	-42.030624
-49.776001	-29.768000	1163.391968	-6.321875	-3.408125	-45.430000
-32.208000	15.616000	1099.586060	-3.377500	-21.328125	-57.421875
-75.701004	55.937000	1129.719971	3.233125	-7.336875	-65.992500
119.743004	-17.750999	961.238037	-13.453125	9.051875	-48.763748
-22.570000	-48.556000	945.377991	-20.829374	28.730625	-40.026875
-14.945000	-115.900002	917.989014	0.140000	23.782499	-38.447498
25.925001	-168.055008	807.030029	16.213751	6.155625	-23.651251
-209.962006	-56.181000	888.343018	15.054375	8.036875	-28.131250
-37.088001	-137.371994	816.973022	3.434375	6.470625	-31.885000
-93.025002	-88.206001	899.932983	2.226875	-6.479375	-14.000000
-108.458000	-176.350998	825.635010	1.806875	10.014375	-24.184999
-239.791000	-2.501000	902.678040	-3.368750	8.658125	-26.735624
-95.586998	-143.716003	880.656982	-5.617500	-7.555625	-16.773750
-200.263000	-66.856003	959.530029	-6.321875	1.198750	-13.111875
-145.850998	-181.352997	930.494019	-12.827500	1.216250	-3.981250
-255.712006	-130.845001	1003.083984	-14.297500	8.190000	2.135000
-215.268997	-182.755997	984.540039	-12.613125	16.397499	-1.841875
229.298996	206.302002	1135.332031	-5.954375	-28.463751	10.648750
250.039001	245.403000	1214.144043	6.545000	-39.081875	6.098750
269.071014	208.070999	1167.174072	20.553749	-40.827499	0.210000
249.124008	284.503998	1316.318970	22.828751	-38.333752	-3.145625
266.813995	201.117004	1337.912964	24.801874	-29.610001	9.926875
275.170990	288.225006	1311.438965	28.393749	-15.229375	10.443125
242.048004	285.968018	1205.482056	15.526875	4.011875	4.007500
122.670998	387.166992	1273.740967	-3.583125	21.157499	0.962500
97.173004	539.606018	1462.353027	-17.981251	20.391874	-2.581250
125.293999	799.221985	1612.046997	-24.268126	13.256250	-4.764375
115.717003	787.083008	1591.245972	-26.158125	15.662500	-0.660625
228.932999	692.716003	1590.391968	-31.963751	33.481876	0.542500
191.356995	548.390015	1518.838989	-36.259998	50.430626	-7.813750
237.533997	377.589996	1416.724976	-24.692499	70.866249	-16.738750
370.087006	239.852005	1423.557007	-15.715000	82.923752	-12.915000
239.425003	-17.141001	1186.572021	9.681875	84.826874	-22.688749
252.662003	116.448997	1253.977051	24.850000	52.535000	-33.547501
133.772995	-80.215004	1058.045044	14.958125	30.773750	-41.588749
84.424004	-48.068001	1004.975037	10.399375	47.578125	-68.258751
29.219000	-60.451000	986.004028	-8.741250	45.526249	-72.371246
48.983002	-115.350998	843.020020	-16.450001	39.046875	-59.583126
58.865002	-153.048996	828.257996	-5.963125	43.006248	-51.082500
-17.202000	-158.600006	719.921997	2.043125	27.133751	-37.183125
-64.416000	-228.567001	723.277039	13.895000	24.106251	-20.733126
-93.025002	-190.747009	750.544006	20.155624	22.776251	-24.154375
-209.656998	-213.438995	734.317993	11.305000	15.946875	-24.368750
-252.235001	-60.633999	779.213989	5.923750	21.945000	-21.638750
-215.635010	-84.119003	780.799988	-2.940000	19.735624	-15.106875
-340.868011	-27.632999	838.994019	-14.096250	9.738750	-15.435000
-288.225006	-33.244999	882.059998	-20.125000	-2.126250	-8.277500
-365.145996	-81.984001	975.877991	-16.038750	-8.128750	-9.533125
-323.544006	-88.876999	1005.523987	-14.840000	-12.499375	-9.734375
-308.660004	-76.494003	1047.979980	-10.491250	-9.511250	-6.558125
-279.014008	-61.610001	1089.582031	-4.138750	-11.764375	-5.884375
-292.921997	-76.737999	1092.327026	-1.824375	-6.339375	-4.606875
-295.850006	-24.217001	1140.089966	-1.890000	-10.425625	-10.460625
-237.656006	-12.444000	1098.061035	-5.005000	-10.473750	-6.273750
-227.408005	-52.033001	1113.494019	-8.299375	-0.170625	2.401875
126.026001	155.854996	1088.666992	10.915625	10.915625	-8.365000
137.860001	214.964005	1094.279053	13.575625	6.553750	-5.858125
121.756004	176.595001	1068.781006	8.176875	0.056875	-1.863750
126.575005	186.904007	1107.333008	6.680625	-7.043750	0.616875
114.252998	170.678009	1130.756958	1.960000	-9.401875	4.698750
123.280998	210.389008	1170.651001	0.608125	-6.076875	5.635000
87.840004	288.652008	1277.339966	0.476875	-6.479375	8.386875
15.189000	390.705017	1411.723022	-3.110625	-2.331875	15.058750
21.410999	583.587036	1598.078003	-11.418750	3.513125	24.613750
71.553001	446.703003	1561.416992	-29.115625	-1.522500	24.338125
128.832001	428.464020	1518.107056	-35.398125	9.668750	17.237499
161.893997	208.498001	1332.362061	-39.781876	17.088751	-4.646250
136.091003	130.906006	1209.508057	-25.331249	37.480625	-23.038750
181.169998	48.556000	1081.530029	-10.075625	56.835625	-38.508751
112.301003	63.440002	1107.394043	-0.713125	70.271248	-45.679375
69.357002	177.205002	1150.947998	-7.980000	46.418751	-52.727501
279.441010	78.385002	1237.629028	-25.283125	11.838750	-32.873749
137.371994	104.309998	1275.448975	-20.580000	28.559999	-28.275625
119.681999	-5.368000	1121.302002	-18.501875	20.724375	-16.073750
57.462002	27.694000	1179.374023	-1.973125	2.060625	-14.056875
151.889999	-91.927002	1076.223022	1.820000	15.680000	-24.841249
-62.159000	4.453000	1047.919067	13.930000	52.110626	-24.272499
12.078000	-99.247002	1000.765991	30.030001	58.021252	-31.001249
-161.772003	20.862000	1057.435059	23.546249	38.311874	-35.853127
-118.706001	-44.042000	960.872009	18.042500	40.805626	-36.583752
-101.992004	-71.065002	982.405029	15.115625	44.655624	-41.829376
-179.339996	-93.147003	946.963989	1.268750	23.030001	-19.193125
-240.949997	-164.151001	828.440979	4.313750	21.901251	-25.584999
-190.380997	-184.585999	831.491028	11.361875	29.754375	-40.131874
-310.184998	-71.918999	903.471008	5.709375	13.291250	-29.343124
-235.704010	-167.018005	870.835999	-5.096875	12.578125	-28.875000
-217.953003	-142.800995	922.991028	-14.179375	0.052500	-7.188125
-285.053009	-225.699997	882.731018	-10.202500	6.575625	2.397500
-250.770996	-162.992004	895.601990	-8.828750	25.488750	12.018125
-354.105011	-130.173996	905.484009	-12.372500	28.021875	32.865002
-441.213013	-47.153000	894.320984	1.417500	35.336876	17.408125
-528.931030	-51.118000	923.296021	-0.013125	11.869375	5.276250
-460.733002	-49.897999	976.061035	-7.196875	-13.991250	-16.603125
-39.223000	84.790001	1182.911987	-1.938125	-44.594376	-0.669375
17.934000	131.149994	1335.046021	-1.798125	-44.891876	-7.529375
78.690002	88.389000	1270.264038	-3.360000	-37.099998	-1.360625
30.988001	16.896999	1222.806030	7.293125	-10.823750	6.361250
48.068001	45.262001	1190.842041	9.559375	-0.883750	1.251250
-1.952000	54.229000	1173.884033	10.578750	-3.241875	1.863750
66.429001	90.462997	1182.851074	13.238750	-7.621250	1.579375
49.166000	141.459000	1144.786987	10.981250	-9.196250	-2.003750
31.720001	173.362000	1187.060059	5.945625	-5.136250	-5.700625
8.845000	212.829010	1211.886963	5.053125	-2.301250	-3.994375
-71.370003	344.833008	1366.644043	-5.079375	0.686875	-4.838750
-53.131001	467.748016	1569.895996	-15.220625	7.105000	-1.351875
-75.822998	625.677002	1740.940063	-36.058750	4.060000	8.732500
49.653999	420.412018	1760.643066	-38.709999	9.301250	17.154375
-45.262001	333.731018	1671.948975	-21.791876	13.676250	12.547500
51.179001	202.947006	1538.114990	-12.551875	11.515000	9.108750
157.746002	53.131001	1327.421021	0.315000	36.929375	-4.598125
204.106003	175.923996	1440.270996	4.921875	56.070000	-17.740625
190.747009	27.511000	1147.776001	-3.346875	75.040001	-20.208124
121.084999	-93.757004	995.825012	2.843750	70.660622	-36.045624
53.862999	-65.758003	893.466980	31.097500	66.272499	-57.290627
-135.419998	117.363998	980.575012	30.397499	65.852501	-69.912498
-49.348999	-22.691999	939.827026	10.574375	38.539375	-65.419373
-0.244000	-108.030998	885.903015	7.826875	27.956249	-51.764999
-44.591000	-293.287994	889.319031	5.206250	38.701248	-49.476875
-32.574001	-317.261017	751.398010	-3.329375	36.093750	-44.830624
-168.421005	-291.092010	728.523010	10.132500	10.946250	-36.942501
-177.815002	-194.529007	614.330994	12.289375	22.771875	-40.499374
-235.520996	-201.483002	725.289978	0.599375	14.936250	-25.042500
-276.878998	-154.208008	749.629028	9.231250	-4.011875	-12.565000
-283.833008	-210.266998	808.494019	11.751250	-7.774375	-2.738750
-385.703003	-101.992004	846.741028	6.343750	-1.400000	1.299375
-278.037994	-211.792007	889.867981	1.684375	-7.765625	-0.761250
-414.373016	-94.367004	941.169006	-2.808750	1.373750	1.111250
-340.136017	-134.749008	930.677002	-4.913125	5.184375	-7.000000
-399.976990	-18.483000	991.005981	-1.124375	-2.152500	-7.319375
-361.181000	-25.193001	1022.726013	4.628750	-7.131250	-8.268750
-363.804016	1.464000	1083.969971	-3.036250	-10.163125	0.236250
63.318001	-20.252001	1155.950073	17.303125	-9.948750	-3.491250
54.229000	1.647000	1131.733032	12.783750	-6.593125	-4.042500
48.739002	-22.631001	1128.378052	2.703750	-3.434375	-3.819375
62.952000	-5.002000	1151.984985	-0.315000	-2.436875	-5.394375
59.048000	-20.496000	1115.019043	2.550625	-0.783125	-5.788125
68.137001	-43.005001	1186.266968	12.626250	-1.465625	-6.829375
59.963001	93.452003	1345.354980	20.912500	-6.352500	-9.795625
81.923004	169.335999	1443.808960	24.990000	-9.891875	-4.983125
143.106003	274.134003	1459.485962	7.730625	-4.038125	-9.410625
50.751999	430.660004	1559.708984	-14.131250	7.468125	-16.804375
50.996002	362.157013	1588.317993	-52.613750	-31.858749	-18.900000
79.910004	134.626999	1518.961060	-66.023125	-57.575001	-20.750626
221.552002	-10.675000	1476.139038	-46.939377	-21.647499	-19.320000
230.031006	-2.623000	1399.706055	-30.235624	42.297501	-11.725000
116.753998	-32.452000	1205.665039	-17.626875	63.056873	-8.395625
113.704002	34.098999	1121.119019	-17.180626	74.724998	-9.222500
73.993004	32.939999	1107.821045	-27.698126	62.190624	-10.145625
181.902008	-120.779999	967.216003	-29.583750	24.990000	-14.818125
79.117004	-60.268002	996.252014	-13.125000	-5.604375	-6.982500
102.053001	-83.509003	955.565002	-0.971250	-32.401249	-1.229375
91.439003	-52.948002	971.242004	11.427500	-9.454375	-13.098750
239.181000	-253.516006	936.960022	7.525000	16.931250	-16.926874
179.949997	-87.108002	1024.921997	7.525000	9.721250	-21.223125
21.106001	-308.660004	880.046997	35.866249	9.721250	-21.223125
21.106001	-308.660004	880.046997	44.738750	17.976875	-13.510000
-4.819000	-66.673004	1008.635010	24.762501	5.341875	-30.379999
64.355003	-312.808014	840.458008	16.113125	-0.691250	-28.192499
-11.468000	-361.851990	877.973022	-1.141875	23.030001	-29.343124
167.078995	-319.884003	830.820007	5.250000	42.673752	-26.565001
-234.240005	-204.410995	741.210999	2.957500	53.173752	-32.834373
-61.854000	-250.466003	981.307007	-10.250625	39.965626	-34.238750
-188.977997	-216.488998	863.088989	-0.813750	12.683125	-11.996250
-167.811005	-234.362000	982.466003	8.780625	-0.196875	-16.231251
-96.075005	-220.210007	943.364990	13.308750	-3.565625	-27.667500
-199.042999	-161.162003	996.434998	9.528750	7.056875	-8.426250
-101.443001	-129.563995	1063.901001	8.067500	10.972500	-2.668750
-229.115997	-146.400009	1057.191040	7.949375	5.166875	-12.989375
-149.815994	-145.057999	1090.863037	2.244375	-7.275625	-18.646250
315.003998	85.522003	1213.411987	13.768125	-25.698750	-14.958125
235.582001	99.674004	1238.483032	12.394375	-18.921875	-9.191875
333.731018	61.183002	1174.250000	7.358750	-10.815000	-0.525000
203.557007	59.779999	1182.240967	6.798750	-5.363750	2.948750
259.311005	-0.122000	1148.508057	5.630625	-4.165000	6.654375
388.875000	71.308998	1131.427979	6.195000	-6.453125	-3.364375
245.341995	113.459999	1104.039062	3.871875	-3.508750	-5.363750
317.505005	139.568008	1175.652954	-1.890000	-0.888125	-8.579375
293.105011	241.376999	1293.016968	-3.438750	-8.036875	-13.120625
225.944000	387.411011	1472.234985	-2.003750	1.925000	-3.710000
228.811005	444.385010	1562.820068	-5.573750	19.967501	6.173125
203.191010	442.372009	1611.010010	-7.205625	22.448126	2.117500
262.666016	452.253998	1522.864990	-2.533125	41.715626	-0.153125
168.238007	336.292999	1545.679077	-2.782500	39.821251	-5.735625
270.778992	314.821014	1415.749023	2.493750	49.739376	-16.336250
253.028000	219.477997	1321.504028	13.203750	62.295624	-29.938126
205.692001	220.576004	1243.546021	6.641250	50.837502	-49.240623
252.540009	151.707001	1061.217041	-11.458125	45.001251	-42.279999
184.403000	-26.169001	952.210022	-21.350000	29.216249	-45.307499
159.270996	-31.537001	996.252014	-33.753124	1.684375	-64.566254
252.783997	-39.345001	910.059021	-24.403749	10.626875	-56.726250
195.749008	-141.214996	963.983032	-3.845625	47.656876	-63.332500
149.328003	-110.288002	909.692993	-16.034374	47.573750	-63.586250
22.204000	-119.621002	956.479980	-14.630000	32.235001	-49.323750
216.977005	-223.199005	923.296021	-1.478750	26.088125	-47.468750
16.226000	-149.449997	870.043030	19.674376	38.906876	-34.571251
36.050999	-233.203003	913.658020	33.009377	42.993126	-37.799999
-88.694000	-48.799999	947.635010	35.258125	30.966249	-32.090626
-124.988998	-110.288002	890.905029	36.763126	33.131874	-29.168125
-97.234001	-35.014000	928.725037	34.851250	24.202499	-11.930625
-165.005005	-37.698002	869.799011	30.786875	21.350000	-2.948750
-194.589996	-62.037003	868.518005	20.011250	19.359375	-8.798125
-159.637009	-1.098000	911.218018	12.985000	5.376875	-9.336250
-216.244995	-53.375000	952.697998	0.853125	1.303750	-5.810000
-232.897995	-9.028000	1021.079041	-10.775625	-2.769375	-1.855000
-262.666016	-21.899000	1049.443970	-9.603125	1.605625	1.828750
-327.082001	-23.058001	1067.805054	-10.679375	12.473125	-3.666250
-268.278015	3.782000	1087.447021	-9.257500	4.007500	-0.993125
-74.176003	216.550003	1198.467041	3.281250	8.181250	4.252500
-75.029999	212.158005	1111.724976	3.959375	-2.493750	-2.065000
-86.803001	209.596008	1086.471069	0.883750	-4.803750	-1.780625
-35.806999	206.057999	1124.535034	5.328750	-9.861250	0.183750
-9.516000	229.055008	1134.966064	4.488750	-14.328125	-3.110625
24.461000	234.057007	1128.561035	2.896250	-5.630625	-0.809375
24.888000	255.895004	1169.796997	0.266875	4.239375	1.001875
32.269001	278.587006	1202.187988	-0.980000	7.870625	-0.997500
-9.455000	337.574005	1201.333984	-0.770000	17.276875	-1.465625
-154.513000	404.979004	1301.191040	-6.028750	19.705000	-5.215000
-78.568001	383.751007	1301.495972	-14.271250	10.609375	-8.701875
-109.922005	393.389008	1258.490967	-15.036875	18.558750	-12.753125
-111.751999	274.561005	1179.251953	-22.054375	15.837500	-20.851250
-128.343994	243.145996	1154.425049	-20.264999	12.858125	-22.837500
-54.656002	217.343002	1156.926025	-10.088750	18.410000	-21.975624
-100.894005	157.380005	1147.837036	-4.681250	30.108749	-27.571251
-84.302002	200.324005	1228.601074	-8.041250	22.356251	-27.829374
-127.551003	184.585999	1215.242065	-8.811250	23.178749	-27.426874
-110.043999	187.453003	1271.849976	-10.705625	27.365625	-18.764376
-174.826004	141.641998	1224.148071	-7.148750	26.403126	-18.099375
-239.852005	168.848007	1252.696045	-8.102500	18.025000	-19.223749
-147.253998	37.881001	1226.405029	-17.766874	3.718750	-11.860625
-192.272003	33.916000	1150.216064	-13.720000	15.767500	-25.235001
-178.486008	-30.500000	1089.216064	-13.391875	1.032500	-26.910625
-194.223999	14.030000	1100.562012	-11.178125	-7.743750	-32.221874
-123.159004	-16.714001	1010.465027	-3.031875	0.826875	-33.880001
-136.578995	-6.832000	1041.514038	4.427500	14.354375	-42.056873
-181.292007	-16.165001	990.640015	6.125000	24.819374	-38.849998
-194.406998	3.721000	986.369995	16.410625	34.531876	-47.254375
-180.438004	-52.399002	973.377014	18.751249	23.458750	-54.674374
-175.985001	-1.891000	1046.271973	0.468125	4.598125	-39.541248
-100.528000	-120.474998	964.653992	-8.106875	23.205000	-36.785000
-97.173004	-143.654999	1025.166016	-11.865000	24.430000	-33.285000
-215.147003	-121.939003	1006.744019	-6.409375	34.015625	-28.682501
-253.455002	-170.190002	941.596008	-3.504375	51.419376	-31.163124
-310.673004	-110.288002	962.397034	-4.265625	31.963751	-22.566250
-345.503998	-190.807999	873.703003	-7.118125	30.686251	-18.615625
-346.235992	-159.576004	867.359009	-5.958750	27.370001	-8.973125
-40.748001	261.140991	1279.963013	10.780000	-13.846875	-0.218750
-47.640999	203.800995	1189.438965	6.496875	-5.005000	2.638125
-62.830002	184.585999	1156.437988	2.546250	0.008750	-2.979375
-14.518001	157.684998	1130.879028	2.690625	2.699375	-7.056875
23.607000	155.550003	1139.175049	9.725625	2.795625	-5.831875
42.761002	194.041000	1172.847046	9.139375	2.174375	-6.864375
55.021999	296.399017	1269.714966	6.706875	2.165625	-4.331250
-1.647000	371.123993	1388.542969	6.706875	2.165625	0.161875
-1.647000	518.195007	1456.130981	3.075625	8.085000	0.161875
17.263000	518.195007	1456.130981	1.806875	11.252500	0.647500
-115.595001	473.115997	1441.552002	17.661875	5.368125	-6.313125
-84.180000	595.116028	1380.307983	15.058750	5.455625	-22.999374
-84.790001	476.227020	1399.156982	3.552500	15.688750	-32.633125
-37.942001	444.080017	1397.631958	0.896875	35.078751	-36.631874
-30.805000	397.597992	1405.989014	2.891875	32.235001	-45.530624
-8.113000	220.880997	1241.899048	9.292500	38.596249	-42.993126
-1.037000	263.032013	1357.677002	-2.743125	64.470001	-45.456249
-0.244000	121.877998	1173.274048	5.337500	69.658752	-42.244999
-32.695999	159.514999	1147.958984	23.887501	92.382500	-52.849998
-114.680000	96.136002	999.606995	5.744375	78.421875	-41.965000
-288.652008	202.031998	939.522034	-6.873125	58.883125	-39.803749
-145.850998	-1.342000	903.898010	-34.068127	22.347500	-43.325626
-233.324997	57.218002	955.320984	-23.616249	26.018126	-46.326874
-186.171997	-175.557999	780.312012	7.288750	52.565624	-65.406250
-155.671997	-112.728004	927.382996	38.145626	31.631250	-52.705624
-213.317001	-197.701004	762.927002	49.700001	34.313126	-44.638126
-292.433990	-116.205002	735.965027	45.556873	6.304375	-30.406250
-351.420990	-58.194000	780.067993	41.580002	-6.330625	-6.265000
-344.101013	-129.259003	717.604004	41.321877	10.946250	-7.218750
-405.406006	-62.159000	734.195984	32.904373	-7.271250	-3.412500
-501.541992	46.360001	841.678040	32.055626	-5.617500	-10.858750
-453.473999	40.443001	830.515015	18.003124	-1.089375	-7.542500
-491.721008	110.593002	891.820007	3.421250	-8.168125	-1.776250
-478.972015	101.077003	932.507019	3.661875	-6.658750	-0.052500
-519.903015	150.609009	978.684021	-2.003750	-2.353750	4.256875
-473.115997	166.042007	994.544006	-0.656250	-1.491875	0.940625
-495.136993	152.012009	994.056030	-1.916250	2.209375	-1.802500
-477.507996	160.369003	991.738037	-6.895000	5.521250	-4.296250
274.927002	112.728004	1110.993042	-5.149375	-15.981875	-3.491250
243.268005	174.337997	1162.477051	-4.576250	-17.876249	-9.345000
307.440002	175.192001	1216.645020	-4.151875	-22.338751	-3.338125
292.678009	124.928001	1265.688965	2.625000	-18.453751	-3.613750
291.580017	134.626999	1196.393066	2.979375	-5.551875	-2.362500
236.375000	81.434998	1145.458008	5.276250	2.030000	0.476875
240.156998	134.871002	1158.268066	7.105000	5.005000	-1.430625
221.307999	256.321991	1248.914062	5.980625	2.016875	-5.201875
241.742996	343.917999	1433.865967	0.389375	-13.164375	-6.860000
268.033997	438.101990	1486.143066	-9.226875	-12.705000	-2.436875
264.862000	475.007019	1585.938965	-20.684999	6.680625	-5.928125
310.489990	452.803009	1602.592041	-37.773750	17.955000	-6.203750
312.442017	352.640991	1588.196045	-32.996250	35.131248	-13.553750
336.903015	275.476013	1508.041992	-26.512501	54.521252	-29.290625
266.143005	194.468002	1397.875977	3.408125	67.143127	-52.224377
188.734009	243.329010	1430.572021	4.138750	70.131248	-60.764374
197.335007	64.598999	1199.992065	1.001875	63.043751	-57.207500
220.514999	62.952000	1168.027954	-21.721874	31.622499	-51.174374
382.774994	-73.809998	983.197998	-31.298750	28.997499	-49.271252
275.231995	-104.066002	909.205017	2.467500	79.826248	-61.792500
160.613007	-89.669998	888.770020	6.645625	72.248749	-48.334999
157.014008	-72.101997	815.143005	9.288125	51.043125	-46.659374
122.975998	-122.854004	779.580017	7.673750	38.456249	-40.831875
32.818001	-124.318001	774.639038	12.066250	25.501875	-30.642500
-17.080000	-115.960999	794.890991	1.124375	16.808750	-21.752501
-88.389000	-164.578003	750.421997	0.525000	10.447500	-28.310625
-195.688004	-120.536003	793.976013	1.575000	-1.986250	-37.384377
-114.252998	-54.716999	775.432007	11.860625	-13.886250	-31.683750
-181.719009	-166.529999	799.039001	17.451876	-8.938125	-31.053749
-126.575005	-49.593002	894.138000	6.479375	-17.416876	-17.994375
-206.912003	-82.228004	912.255005	2.415000	-8.833125	-6.658750
-140.971008	-70.028000	1002.840027	-5.153750	-0.166250	-13.829375
-115.045998	-74.054001	1023.397034	-1.561875	-5.963125	0.367500
-134.688004	-89.059998	1107.821045	-2.148125	-10.224375	-9.030000
-78.323997	-76.372002	1113.188965	-4.138750	-12.118750	-9.541875
-154.818008	-41.907001	1133.318970	-5.105625	-6.540625	-8.583750
-114.252998	-57.584000	1146.312012	-7.284375	-5.709375	-8.754375
-99.186005	-32.146999	1139.662964	-7.455000	-7.533750	-5.236875
464.759003	98.027000	1208.593018	6.851250	-10.373125	6.286875
403.209991	30.805000	1208.410034	11.585000	-6.960625	3.955000
389.058014	100.345001	1163.514038	12.700625	1.907500	1.220625
364.109009	60.084999	1094.645020	14.608125	10.815000	0.428750
298.778015	78.385002	1112.945068	11.427500	1.365000	-5.718125
345.748016	120.536003	1083.238037	5.700625	-7.236250	-10.740625
344.528015	153.720001	1127.036011	-0.008750	-10.819375	-12.236875
358.802002	245.098007	1247.206055	-5.223750	-13.711250	-12.468750
381.799011	387.289001	1455.643066	-8.653750	-8.820000	-4.261250
397.476013	440.481018	1632.665039	-10.994375	-3.101875	8.260000
373.869019	495.136993	1595.455078	-9.406250	12.149375	7.258125
469.212006	499.162994	1672.010010	-15.273125	1.343125	-6.212500
387.472015	477.203003	1646.817017	-12.153750	23.629375	-9.301250
476.044006	427.488007	1514.812988	-4.847500	58.826248	-2.209375
527.955017	238.022003	1409.282959	-5.538750	57.723751	-16.638124
544.851990	147.193008	1210.484009	-11.895625	58.318748	-38.504375
439.382996	-43.310001	1110.505005	-36.246876	60.913124	-37.795624
501.298004	-221.613007	968.314026	-25.891251	61.285000	-53.051250
366.304993	-159.332001	796.294006	-6.466250	70.896873	-54.193127
161.650009	-48.007000	858.514038	1.964375	70.953751	-61.954376
238.266006	-107.848000	711.320984	2.428125	44.607498	-54.770626
59.230999	-32.939999	677.710022	10.491250	32.882500	-54.735626
129.137009	-211.365005	607.499023	7.332500	13.173125	-47.306873
-10.492001	-57.218002	706.075012	-1.076250	5.005000	-38.416874
77.958000	-312.381012	704.671997	-15.960000	12.110000	-38.451874
-41.663002	-74.724998	899.322998	-37.620625	21.507500	-38.692501
-22.264999	-211.852997	803.126038	-44.695000	19.372499	-34.588749
18.483000	-189.160995	808.921021	-16.861250	3.486875	-16.231251
-84.119003	-200.507004	951.416992	4.305000	-4.029375	-11.340000
-67.344002	-121.634003	989.846985	10.683750	6.510000	-4.987500
-70.882004	-190.747009	997.777039	2.515625	6.741875	-5.534375
-86.742004	-171.714996	1064.876953	3.058125	-1.785000	2.296875
-104.066002	-131.333008	1117.214966	1.242500	4.305000	-4.471250
-127.063004	-127.917000	1120.753052	-1.894375	8.155000	-4.703125
-170.251007	-53.558002	1160.281006	-8.662500	8.225000	-11.589375
-54.229000	-144.570007	1063.596069	-13.886250	-2.340625	-8.653750
-83.570000	-132.126007	1133.685059	-15.264375	-8.260000	-2.874375
-40.992001	-136.518005	1093.791016	-7.892500	-6.755000	-0.612500
381.067017	111.691002	1113.067017	16.611876	-10.093125	3.915625
281.759003	158.722000	1145.579956	19.451250	-8.098125	1.540000
332.266998	219.600006	1127.036011	11.690000	-7.984375	0.350000
336.537018	215.085999	1152.229004	7.612500	-6.965000	1.833125
320.250000	192.333008	1134.478027	5.565000	-5.560625	3.390625
341.416992	189.344009	1145.458008	2.581250	-5.040000	0.673750
317.261017	171.044006	1140.333984	4.077500	0.796250	-0.210000
372.893005	262.666016	1227.136963	2.616250	4.116875	-0.323750
305.061005	375.333008	1361.581055	1.561875	4.589375	-4.466875
397.963989	527.650024	1447.347046	-8.741250	3.272500	-3.171875
362.218018	573.400024	1561.416992	-22.067499	4.991875	3.176250
428.281006	602.557983	1621.624023	-29.898750	12.140625	8.343125
436.576996	409.248993	1602.713989	-52.863125	10.189375	30.493750
385.520020	161.406006	1451.494995	-57.793751	13.076875	11.742500
413.214020	102.785004	1343.463989	-32.970001	20.011250	-7.791875
446.398010	-164.456009	1105.136963	9.327500	40.201874	-38.421249
499.162994	9.577000	1140.760986	30.275000	71.439377	-51.371250
450.790009	-78.385002	1045.174072	25.213125	85.102501	-48.208126
441.457001	-85.705002	976.549011	5.831875	73.298752	-50.128750
308.721008	-72.101997	891.270996	-3.920000	58.550625	-38.981251
200.324005	-80.581001	936.350037	-4.480000	59.049374	-39.720627
240.889008	-189.710007	764.574036	-1.124375	50.290627	-40.153751
-6.954000	-83.447998	887.062012	-2.016875	43.723751	-52.272499
130.173996	-235.399002	722.057007	-5.481875	29.115625	-44.410625
1.098000	-82.716003	831.796021	-5.678750	32.370625	-31.605000
-31.964001	-187.331009	745.481018	-9.922500	39.532501	-34.702499
-110.653999	-116.693001	899.994019	-8.080625	28.949375	-18.523750
-162.626007	-156.343002	818.986023	-5.153750	28.875000	-13.860000
-167.505997	-185.013000	840.275024	-9.384375	26.446875	-11.886875
-217.770004	-148.656998	881.816040	-10.863125	9.511250	-11.720625
-237.533997	-163.113998	868.273987	-8.395625	12.359375	-10.530625
-218.929001	-131.272003	936.533020	-9.677500	-0.056875	-6.855625
-233.141998	-147.132004	1000.156006	-2.970625	-9.310000	-5.691875
-171.287994	-144.936005	1055.483032	-1.417500	-14.301875	-4.007500
-195.261002	-88.754997	1105.015015	0.875000	-10.513125	-2.502500
-138.104004	-116.693001	1130.390991	-1.220625	-12.687500	-8.032500
-162.199005	-89.059998	1136.125000	-0.043750	-7.988750	-1.150625
-132.248001	-87.473999	1133.258057	-2.410625	-5.433750	-3.206875
-120.169998	-112.544998	1133.135986	-2.681875	-7.148750	0.840000
264.496002	217.770004	1107.333008	4.510625	12.643750	20.965000
343.674011	110.776001	1138.015991	-17.416876	1.137500	18.235001
345.931000	138.225998	1191.025024	-5.175625	-17.972500	1.277500
370.941010	155.977005	1175.592041	9.450000	-23.673124	-3.933125
374.113007	107.604004	1082.994019	6.916875	-10.294375	-1.303750
359.656006	146.826996	1102.818970	1.063125	-5.976250	-8.408750
376.248016	170.983002	1146.921997	1.050000	-1.513750	-4.296250
419.924011	278.037994	1214.571045	3.360000	1.701875	-3.836875
374.906006	373.076019	1364.570068	-4.773125	3.220000	-6.531875
328.545990	480.070007	1488.521973	1.404375	-7.621250	-6.772500
396.072998	434.442017	1560.197021	-22.115625	-32.514999	-5.425000
384.971008	361.181000	1559.526001	-29.286249	-11.418750	-2.730000
499.407013	392.230011	1549.948975	-24.626875	19.477501	4.878125
611.403015	270.473999	1403.427002	-26.936874	40.298126	0.612500
589.077026	249.184998	1264.164062	-22.386875	60.519375	-27.339375
620.858032	77.104004	1074.820068	-16.327499	66.408127	-48.842499
525.575989	144.509003	1053.836060	-12.271875	62.076874	-61.171249
454.023010	45.567001	1099.098022	-32.471249	53.011875	-58.751877
490.989014	-80.276001	983.137024	-29.802500	67.379372	-57.697498
419.252991	-148.291000	915.793030	-8.286250	77.358749	-51.340626
314.088989	-150.548004	831.125000	9.865625	66.272499	-43.745625
204.594009	-185.318008	787.265991	9.865625	49.148750	-39.208752
98.087997	-171.897995	757.376038	10.329375	49.148750	-39.208752
98.087997	-171.897995	740.418030	-7.673750	18.698750	-33.915001
67.222000	-176.656006	740.418030	-20.763750	-3.049375	-32.287498
15.982000	-233.203003	698.755005	-24.294374	-2.436875	-23.191875
14.152000	-182.451004	770.613037	-7.953750	7.704375	-16.918125
-83.570000	-227.042007	861.197998	8.973125	25.825624	-7.306250
-58.376999	-215.085999	892.918030	8.990625	46.996250	-14.791875
-21.777000	-266.936005	823.561035	-0.883750	37.086876	-13.426875
-202.947006	-206.180008	965.385986	-9.432500	22.951250	-3.513125
-116.570999	-231.494995	1027.484009	-18.392500	8.089375	-1.750000
-164.334000	-189.587997	1015.223022	-18.475624	4.865000	4.252500
-138.531006	-195.382996	1089.703979	-14.494375	5.149375	-3.088750
-175.375000	-138.775009	1052.188965	-10.823750	1.618750	-0.730625
-134.565994	-132.431000	1064.693970	-5.950000	-0.945000	3.058125
-139.994995	-86.620003	1108.979980	-3.858750	-5.656875	-0.021875
-90.584999	-110.836998	1075.186035	-4.676875	-6.781250	0.669375
278.709015	96.929001	1183.094971	40.188751	17.250626	24.263750
222.223007	202.764008	1283.013062	56.345627	23.261875	16.572500
113.338005	256.261017	1244.583008	45.088749	12.516875	5.315625
161.162003	338.855011	1298.506958	50.522499	7.210000	5.901875
148.291000	447.739990	1229.942993	45.758125	0.358750	7.730625
41.846001	408.028992	1194.745972	41.243126	3.071250	7.021875
108.153000	526.491028	1199.077026	34.693748	7.918750	17.460625
127.063004	541.557983	1142.713013	22.351875	21.450624	17.338125
97.844002	637.877014	1155.218018	9.642500	20.444374	-0.332500
72.651001	638.791992	1199.992065	-11.221875	25.808125	-3.451875
12.810000	701.744019	1243.302002	-14.406875	38.386250	-6.426875
-17.568001	617.259033	1194.501953	-10.084375	20.006874	-16.086876
5.917000	637.510986	1234.701050	4.821250	-4.405625	-18.016251
116.998001	686.799011	1208.958984	33.560623	-15.465625	-27.601875
70.882004	579.866028	1051.030029	16.397499	-22.028126	-31.797501
20.252001	648.979004	1252.329956	-26.026875	-17.473749	-24.543751
258.091003	512.705017	1226.893066	-73.779999	3.898125	-1.933750
352.335999	434.320007	1267.823975	-65.218124	25.882500	-14.275625
129.930008	280.356018	1205.238037	-55.181873	50.623123	-34.645626
100.405998	115.839005	1169.979980	-1.592500	52.657501	-47.818748
40.504002	1.525000	1080.737061	45.290001	48.020000	-58.528751
-68.076004	184.585999	1087.812988	60.873749	35.682499	-61.521252
58.865002	244.854004	1079.029053	50.487499	19.910625	-56.161877
-2.684000	262.726990	989.237000	42.953751	25.843124	-46.576248
-27.877001	203.130005	1083.604004	33.731251	36.649376	-62.142502
-33.977001	188.977997	1018.333984	14.796250	32.619999	-38.893749
-80.886002	199.165009	901.763000	21.625626	40.919376	-52.421249
-151.218994	152.378006	876.509033	18.235001	12.866875	-41.278126
-158.539001	253.820999	873.398010	10.727500	6.081250	-35.756874
-293.471008	176.046005	830.148987	-1.925000	7.538125	-39.090626
-231.190002	273.829010	899.445007	-12.796875	-9.143750	-34.540627
-247.660004	143.777008	881.450012	-16.043125	-3.180625	-33.315624
-267.790009	114.557999	851.316040	-10.508750	1.461250	-33.022499
-243.451004	85.888000	903.348999	-4.655000	-2.156875	-25.611250
-317.016998	91.682999	888.403992	1.120000	2.800000	-30.471874
-272.548004	118.828003	917.928040	7.052500	-8.841875	-16.323126
-336.476013	134.932007	985.699036	8.141875	-3.556875	-18.191250
-311.039001	147.498001	942.510986	11.611250	4.309375	-24.250626
139.141006	205.082001	1112.578979	-18.055626	-15.859375	12.188750
239.303009	209.413010	1170.833984	-16.642500	-30.191875	15.540000
180.987000	176.290009	1258.857056	7.126875	-24.994375	7.638750
252.906006	267.912018	1266.909058	20.908125	-36.242500	14.350000
311.343994	226.737000	1197.857056	20.912500	-31.010000	15.010625
298.472992	231.617004	1212.802002	15.456875	-10.412500	7.144375
270.169006	297.863007	1309.243042	12.573750	-12.473125	4.445000
289.322998	358.313995	1423.312988	13.680625	-10.150000	3.902500
326.166992	520.879028	1560.502075	5.245625	-1.745625	5.394375
299.937012	542.838989	1604.787964	9.318750	16.336250	-4.265625
241.742996	689.483032	1578.619019	-2.108750	10.570000	-17.430000
329.399994	633.851013	1476.627075	-25.729376	3.653125	-25.383751
279.257996	481.167999	1418.799072	-30.502501	16.996876	-25.913124
468.296997	350.322998	1393.422974	-35.258125	40.538750	-36.968750
334.829010	182.328995	1165.405029	-22.448126	80.600624	-47.915001
272.914001	0.671000	1082.994019	-0.402500	87.836876	-43.964375
297.252991	-25.437000	986.980042	18.991875	87.644379	-54.683125
65.758003	-48.129002	876.447998	20.295626	82.490623	-53.480000
60.024002	-147.803009	909.632019	10.158750	58.743126	-48.496876
86.132004	-119.804001	921.466003	-0.818125	34.658749	-41.068127
-63.623001	-2.013000	895.785034	-3.031875	27.125000	-47.656876
3.843000	-73.871002	951.539001	4.847500	34.072498	-53.449375
-49.959000	-109.190002	865.651001	-7.380625	27.028749	-32.095001
-98.087997	-206.423996	851.926025	-13.715625	18.466875	-15.071875
-147.132004	-215.025009	832.406006	-7.035000	6.195000	-24.447500
-58.560001	-82.777000	839.908997	0.245000	25.038124	-23.292500
-248.026001	-51.240002	857.171997	-11.248125	38.154373	-22.084999
-165.737000	-91.439003	900.481995	-17.574375	14.673750	-16.502501
-252.845001	-17.690001	875.166992	-10.066875	19.455626	-16.222500
-211.548004	-82.959999	921.710022	-11.926250	8.907500	-8.343125
-290.604004	-11.407001	962.275024	-11.108125	3.679375	-1.732500
-259.493988	-68.259003	997.898987	-10.381875	-1.023750	0.218750
-320.860016	-10.736000	1059.447998	-5.324375	-7.778750	2.270625
-270.901001	-57.827999	1055.787964	-2.454375	-12.333125	-3.062500
-271.816010	-21.289000	1081.347046	-2.743125	-13.969375	-9.887500
-212.645996	-72.223999	1061.400024	-2.546250	-14.980000	-8.588125
-227.652008	-52.277000	1119.959961	3.066875	-11.178125	-10.263750
-201.421997	-71.003998	1082.201050	-0.621250	-6.343750	-4.020625
336.170990	109.373001	1284.721069	20.951876	-0.385000	3.753750
274.622009	185.318008	1188.768066	20.728750	9.957500	-1.395625
256.932007	255.651001	1165.770996	14.183750	10.307500	-7.118125
259.372009	226.919998	1097.938965	14.183750	6.601875	-5.083750
285.846008	195.444000	1169.796997	1.163750	6.601875	-5.083750
285.846008	195.444000	1310.645996	-1.977500	9.673125	-5.617500
291.885010	314.149994	1310.645996	4.265625	4.611250	-3.963750
361.546997	460.123016	1464.122070	1.885625	3.316250	-0.809375
259.311005	526.369019	1522.072021	12.792500	13.711250	10.325000
280.173004	527.283997	1573.494995	6.116250	-0.332500	14.498750
283.101013	551.622986	1494.011963	-11.515000	5.446875	8.190000
262.239014	537.288025	1446.432007	-12.320000	25.589375	-11.926250
330.071014	258.029999	1418.432983	-13.046250	32.707500	-19.324375
327.204010	248.453003	1367.742065	-15.929375	46.930626	-24.373125
431.514008	133.406998	1231.285034	-13.877500	53.388126	-33.302502
391.192993	-29.219000	996.739990	-13.168750	49.931873	-33.525623
403.576019	-40.077000	918.781982	-22.028126	40.700626	-31.491249
291.458008	-74.664001	867.664001	-18.436251	56.236252	-47.923752
250.527008	-54.716999	830.148987	-24.797501	73.788750	-60.440624
190.747009	-109.861000	833.687012	-21.756874	67.221878	-53.256874
74.114998	-164.761002	787.265991	-13.693750	61.333126	-64.045624
48.983002	-188.917007	756.643982	-24.351250	47.153751	-49.840000
-188.917007	-151.951004	880.962036	-30.690624	31.845625	-42.551250
54.411999	-378.993011	740.539978	-28.481251	20.348125	-25.895624
-141.824997	-263.580994	829.478027	-10.972500	26.705000	-15.968750
-221.673996	-298.533997	778.726013	-4.418750	29.767500	-31.517500
-269.742004	-188.490005	882.791992	-8.028125	14.166250	-23.226875
-233.934998	-224.723999	873.458984	-5.691875	6.365625	-17.858749
-171.654007	-247.233002	913.231018	-3.084375	-3.915625	-16.590000
-203.007996	-206.057999	998.630981	-0.262500	-5.989375	-7.336875
-198.188995	-214.415009	1038.036987	-1.671250	-9.436875	-8.286250
-240.035004	-175.130997	1081.407959	-4.733750	-5.285000	-5.591250
-178.119995	-176.778000	1085.129028	-4.186875	-5.241250	-7.647500
-184.037003	-154.147003	1093.058960	1.295000	-7.927500	-4.243750
-158.356003	-157.746002	1084.763062	0.363125	-4.060000	-0.625625
-184.647003	-145.302002	1095.316040	0.122500	-5.735625	-4.585000
-133.285004	-179.584000	1092.875977	-4.633125	-7.603750	-2.156875
-179.949997	-161.710999	1122.277954	-3.714375	-2.865625	-1.513750
202.886002	116.327003	1254.160034	20.719999	-12.827500	1.050000
134.871002	168.421005	1206.946045	19.582500	-8.181250	-0.568750
201.483002	144.143005	1205.359985	9.909375	-2.021250	0.363125
158.660995	149.145004	1137.100952	2.318750	8.098125	-0.043750
177.570999	137.188995	1157.474976	-2.940000	3.780000	-1.369375
170.494995	197.274002	1181.997070	0.376250	2.585625	-7.713125
176.595001	333.182007	1337.608032	-0.778750	-0.538125	-4.055625
190.320007	395.157990	1513.837036	2.502500	-13.877500	2.310000
65.148003	712.296997	1642.181030	16.458750	-15.631875	2.716875
204.227997	616.832031	1608.082031	2.485000	-16.590000	-2.944375
254.431000	610.914978	1562.209961	-19.359375	-16.620625	-4.313750
342.942017	444.507019	1434.842041	-35.831249	21.367500	-9.830625
379.602997	442.250000	1242.875000	-40.293751	68.967499	-18.440624
269.131989	276.024994	1212.557983	-45.644375	80.491249	-22.701876
365.572998	138.348007	1091.838989	-38.399376	72.222504	-34.142502
266.631012	0.366000	1034.864990	-37.974998	56.879375	-42.048126
330.619995	-100.833000	1037.182983	-33.433750	46.353127	-50.728127
286.578003	-171.471008	906.643005	-13.746250	54.061874	-68.411873
154.268997	-268.644012	812.398010	-7.966875	59.753750	-66.377502
75.274002	-271.328003	790.864990	3.653125	57.294998	-57.089375
19.337000	-283.467010	751.337036	14.166250	60.051250	-50.513748
-102.236000	-212.462997	747.127991	14.166250	60.051250	-41.588749
-102.236000	-307.928009	778.359985	14.813750	43.645000	-41.588749
-89.426003	-307.928009	778.359985	18.545626	26.420626	-31.705626
-187.026001	-67.282997	847.960999	1.540000	24.714375	-40.525623
-133.041000	-186.233002	777.078979	-7.026250	20.330626	-34.488125
-211.059998	-225.151001	940.192993	-12.521250	18.532499	-25.466875
-211.059998	-373.502991	852.718994	-11.493125	11.873750	-24.351250
-342.149017	-304.695007	889.197021	-5.827500	11.681250	-26.018126
-257.481018	-323.300018	868.762024	-8.137500	2.555000	-27.632500
-269.071014	-275.354004	903.593018	-4.515000	3.727500	-17.443125
-276.878998	-253.943008	985.577026	0.297500	0.026250	-13.829375
-299.326996	-204.167007	985.150024	1.929375	-6.033125	-6.785625
-323.726990	-168.421005	1061.156006	4.445000	-10.815000	-8.500625
-239.546997	-171.410004	1077.625977	7.214375	-20.177500	-11.729375
-257.786011	-135.602997	1060.790039	3.574375	-9.611875	-6.300000
-204.167007	-128.649002	1091.656006	5.035625	-7.293125	-1.080625
-225.882996	-117.730003	1098.305054	1.981875	-8.120000	2.738750
207.949005	339.769989	1254.221069	38.963749	-2.043125	9.716875
190.320007	371.246002	1272.520996	43.658127	-14.818125	6.431250
169.031006	473.665009	1177.300049	25.322500	-25.991875	7.122500
147.070999	399.610992	1189.988037	10.736250	-13.457500	4.217500
146.278000	391.558990	1156.316040	1.211875	-1.907500	0.896875
129.930008	331.473999	1142.041992	-9.183125	3.548125	4.795000
178.729996	457.744019	1259.711060	-11.143125	3.412500	1.955625
251.442001	553.575012	1331.325073	-10.736250	8.015000	2.598750
223.199005	774.028992	1338.156982	1.015000	17.937500	3.941875
166.957001	784.155029	1393.422974	-9.721250	19.910625	4.261250
126.575005	825.817993	1438.014038	-23.918125	22.093750	0.258125
108.823997	657.518982	1424.899048	-43.456875	15.763125	-4.563125
69.967003	527.101013	1402.084961	-56.581875	18.641874	-8.942500
205.813995	330.071014	1430.937988	-43.308125	22.653749	-18.252501
276.878998	170.190002	1253.000977	-16.253124	37.034374	-28.035000
319.029999	145.973007	1201.333984	-6.868750	63.052502	-36.575001
233.447006	36.600002	1024.006958	-2.248750	72.213753	-41.772499
153.110001	-7.137000	955.687012	3.128125	60.191250	-52.285625
135.419998	-54.411999	908.290039	4.838750	53.095001	-55.081249
8.418000	25.437000	898.103027	-4.445000	50.461250	-61.810001
25.254000	-19.886000	886.635010	-1.763125	37.091251	-56.564377
-69.174004	-62.525002	852.291992	13.251875	21.275625	-59.508751
-62.525002	-96.258003	796.354980	15.338750	9.734375	-60.016251
-7.015000	-161.040009	869.250000	12.376875	-10.355625	-35.170624
-141.214996	-80.581001	850.583984	14.805000	0.542500	-20.803125
-157.380005	-140.361008	840.640991	8.710625	21.735001	-35.494373
-173.240005	-127.612000	896.517029	-0.061250	6.951875	-26.893126
-284.503998	-81.618004	864.979980	-2.502500	11.396875	-28.126875
-275.292999	-97.599998	904.080994	-5.871250	6.238750	-25.020624
-267.851013	-91.195000	966.239990	-3.600625	0.490000	-16.620625
-280.173004	-63.684002	991.432983	0.415625	8.220625	-17.010000
-231.251007	-66.978004	980.575012	-5.188750	-1.085000	-2.222500
-291.458008	-22.814001	1055.910034	-0.472500	-9.292500	7.660625
-326.593994	-6.100000	1087.020020	1.347500	-4.480000	2.056250
-315.614014	56.852001	1087.874023	2.003750	-5.372500	-3.793125
-272.182007	17.385000	1089.338013	0.385000	-11.326875	-3.889375
-259.127991	38.125000	1103.734009	-1.093750	-6.724375	-3.451875
-201.544006	11.285000	1079.760986	-1.093750	-5.630625	-2.808750
187.697006	219.050995	1096.291992	-3.228750	17.106251	10.053750
177.449005	198.860001	1175.713989	4.873750	24.045000	8.303750
109.250999	251.503006	1188.645996	2.966250	2.756250	11.305000
173.789001	171.044006	1202.797974	0.590625	-17.346874	10.688125
135.115005	177.693008	1179.191040	2.480625	-20.155624	10.001250
156.709000	181.597000	1182.363037	5.875625	-17.832500	8.404375
151.768005	196.419998	1201.883057	11.243750	-16.344999	4.694375
146.888000	228.750000	1215.973999	11.445000	-17.080000	4.445000
137.921005	256.444000	1265.445068	14.231875	-8.771875	3.591875
103.211998	322.140991	1331.203003	13.168750	-6.886250	4.226250
132.979996	383.324005	1438.014038	13.536250	-7.004375	-1.780625
149.572006	459.817993	1460.645020	13.571250	-13.501250	-5.368125
135.054001	541.741028	1498.343018	-12.048750	-24.049376	-20.020000
237.350998	470.737000	1478.030029	-35.428749	-25.606874	-27.724375
254.003998	308.721008	1460.950073	-42.113750	-4.983125	-31.950624
304.329010	379.968994	1455.459961	-33.376877	24.180626	-33.950001
361.973999	264.069000	1397.692993	-26.018126	38.565624	-40.564999
342.332001	230.945999	1400.072021	-18.077499	31.167500	-52.263748
442.920990	223.199005	1289.417969	-20.313126	35.424374	-48.584373
467.565002	96.136002	1069.940063	-29.903126	42.411251	-46.068748
385.764008	6.283000	973.926025	-34.203751	54.862499	-42.590626
340.623993	-19.215000	874.312988	-24.053749	79.607498	-43.780624
211.792007	33.000999	917.562012	-9.603125	97.444374	-42.428749
158.783005	5.795000	898.773987	-6.816250	73.815002	-40.446877
119.864998	-94.611000	733.403015	-2.073750	65.585625	-41.264999
-17.812000	-104.737000	775.065979	7.420000	62.833752	-42.805000
-103.761002	-137.005997	764.757019	0.538125	50.623123	-45.688126
-37.271000	-262.056000	800.259033	-14.122500	25.650625	-24.075624
-228.567001	-278.648010	788.424988	-18.138750	21.389376	-25.143126
-219.660995	-357.825989	682.101990	-17.517500	24.080000	-35.756874
-274.927002	-349.713013	766.708984	-14.017500	10.416875	-32.545624
-271.755005	-349.286011	696.924988	-3.675000	10.346875	-27.081249
-333.304016	-257.786011	820.083984	-2.266250	6.776875	-10.132500
-339.221008	-262.544006	893.406006	-2.078125	-9.874375	-5.149375
-352.519012	-149.022995	1001.497986	3.941875	-13.610625	-8.916250
-325.007996	-193.979996	1041.818970	-0.498750	-15.575000	-1.553125
-281.454010	-80.946999	1168.821045	-2.769375	-23.309999	-2.620625
-177.022003	-182.817001	1120.082031	-1.369375	-14.459375	-0.875000
