A_X[mg]	A_Y[mg]	A_Z[mg]	G_X[dps]	G_Y[dps]	G_Z[dps]	
179.706009	123.464005	1103.612061	0.612500	-0.630000	-1.500625
179.828003	130.479004	1104.588013	0.608125	-0.577500	-1.491875
182.207001	128.466003	1105.930054	0.560000	-0.511875	-1.487500
181.779999	128.466003	1104.099976	0.595000	-0.630000	-1.526875
182.145996	130.417999	1107.821045	0.590625	-0.608125	-1.487500
178.973999	129.686005	1103.489990	0.581875	-0.533750	-1.461250
180.804001	128.466003	1103.978027	0.704375	-0.590625	-1.531250
179.096008	129.563995	1104.588013	0.621250	-0.643125	-1.505000
181.352997	121.451004	1104.099976	0.608125	-0.538125	-1.421875
181.902008	124.867004	1103.001953	0.577500	-0.586250	-1.360625
180.194000	127.794998	1105.563965	0.564375	-0.616875	-1.404375
180.804001	125.050003	1110.870972	0.581875	-0.555625	-1.509375
179.828003	128.893005	1104.770996	0.437500	-0.612500	-1.509375
178.852005	125.538002	1101.537964	0.560000	-0.581875	-1.518125
181.475006	124.318001	1103.612061	0.520625	-0.643125	-1.456875
177.876007	129.137009	1098.732056	0.490000	-0.581875	-1.465625
182.695007	125.293999	1103.185059	0.481250	-0.704375	-1.452500
178.608002	125.293999	1100.440063	0.599375	-0.651875	-1.500625
179.949997	126.514000	1106.723022	0.616875	-0.673750	-1.386875
182.024002	128.770996	1104.832031	0.590625	-0.691250	-1.347500
185.378998	124.318001	1101.050049	0.616875	-0.590625	-1.509375
178.912994	127.551003	1105.259033	0.599375	-0.564375	-1.518125
177.632004	130.845001	1105.563965	0.603750	-0.616875	-1.522500
172.874008	125.477005	1105.076050	0.573125	-0.529375	-1.610000
181.109009	130.356995	1104.953979	0.586250	-0.507500	-1.421875
178.973999	130.540009	1099.159058	0.638750	-0.616875	-1.561875
182.938995	128.587997	1101.904053	0.656250	-0.603750	-1.491875
179.706009	128.222000	1105.990967	0.647500	-0.595000	-1.583750
177.388000	123.098000	1104.343994	0.673750	-0.651875	-1.557500
181.475006	126.209000	1100.562012	0.700000	-0.603750	-1.413125
179.218002	125.293999	1103.916992	0.616875	-0.481250	-1.465625
182.328995	129.746994	1103.001953	0.673750	-0.599375	-1.382500
184.585999	127.612000	1102.391968	0.669375	-0.595000	-1.535625
184.830002	128.100006	1108.552979	0.621250	-0.595000	-1.649375
181.779999	126.391998	1103.855957	0.643125	-0.621250	-1.513750
184.647003	132.065002	1104.466064	0.643125	-0.673750	-1.439375
180.682007	130.662003	1104.099976	0.542500	-0.525000	-1.439375
181.169998	126.880005	1103.489990	0.621250	-0.647500	-1.518125
178.486008	131.455002	1102.514038	0.660625	-0.612500	-1.566250
177.143997	127.489998	1102.270020	0.608125	-0.608125	-1.470000
177.998001	129.686005	1100.562012	0.603750	-0.634375	-1.386875
181.109009	127.978004	1104.282959	0.586250	-0.673750	-1.373750
180.316010	126.391998	1103.245972	0.511875	-0.608125	-1.461250
178.242004	126.758003	1100.196045	0.586250	-0.630000	-1.417500
181.597000	132.065002	1102.026001	0.673750	-0.586250	-1.365000
179.218002	130.052002	1106.479004	0.551250	-0.603750	-1.413125
179.218002	131.638000	1108.125977	0.612500	-0.603750	-1.386875
181.048004	127.246002	1101.598999	0.595000	-0.695625	-1.544375
178.973999	130.479004	1105.136963	0.665000	-0.590625	-1.487500
182.817001	127.368004	1102.758057	0.665000	-0.542500	-1.601250
179.828003	128.587997	1101.416016	0.660625	-0.555625	-1.465625
178.852005	125.538002	1107.698975	0.564375	-0.573125	-1.548750
179.584000	127.917000	1107.027954	0.485625	-0.485625	-1.487500
177.753998	126.880005	1102.270020	0.533750	-0.568750	-1.417500
182.451004	128.953995	1099.342041	0.468125	-0.555625	-1.452500
180.682007	129.686005	1102.575073	0.546875	-0.603750	-1.522500
179.096008	128.710007	1104.222046	0.634375	-0.669375	-1.421875
177.509995	130.540009	1100.806030	0.568750	-0.647500	-1.360625
178.852005	125.293999	1104.770996	0.533750	-0.516250	-1.478750
181.841003	125.781998	1100.806030	0.490000	-0.590625	-1.360625
174.764999	124.562004	1103.672974	0.581875	-0.691250	-1.395625
183.061005	129.503006	1101.904053	0.551250	-0.621250	-1.443750
180.316010	127.856003	1104.161011	0.634375	-0.634375	-1.610000
175.253006	124.318001	1105.686035	0.564375	-0.529375	-1.544375
177.815002	129.014999	1106.052002	0.564375	-0.520625	-1.430625
176.900009	132.675003	1101.660034	0.638750	-0.665000	-1.448125
180.987000	127.551003	1102.148071	0.651875	-0.665000	-1.448125
177.998001	125.903999	1103.368042	0.708750	-0.586250	-1.430625
181.841003	120.353004	1103.855957	0.621250	-0.586250	-1.513750
189.893005	131.516006	1100.440063	0.621250	-0.586250	-1.557500
172.996002	126.636002	1106.967041	0.651875	-0.621250	-1.557500
172.996002	126.636002	1100.379028	0.297500	-0.577500	-1.365000
180.132996	125.293999	1100.379028	0.599375	-0.590625	-1.452500
185.988998	126.758003	1105.136963	0.686875	-0.643125	-1.421875
174.399002	125.293999	1105.442017	0.306250	-0.262500	-1.382500
179.645004	134.626999	1106.540039	0.472500	-0.511875	-1.426250
170.738998	129.014999	1099.769043	0.533750	-0.630000	-1.408750
186.904007	125.416000	1105.869019	0.875000	-0.809375	-1.496250
179.156998	129.380997	1100.196045	0.826875	-0.735000	-1.448125
178.608002	127.734001	1108.552979	0.647500	-0.616875	-1.435000
177.509995	127.246002	1108.125977	0.468125	-0.494375	-1.308125
179.706009	117.668999	1108.735962	0.586250	-0.568750	-1.382500
182.024002	132.979996	1101.233032	0.673750	-0.665000	-1.535625
181.779999	122.182999	1105.015015	0.118125	-0.713125	-1.461250
183.000000	122.732002	1103.489990	0.787500	-0.682500	-1.526875
176.839005	123.342003	1100.073975	1.028125	-0.844375	-1.435000
175.923996	130.479004	1103.185059	0.800625	-0.555625	-1.443750
184.037003	134.505005	1103.978027	0.218750	-0.131250	-1.343125
176.106995	127.794998	1103.612061	0.271250	-0.511875	-1.413125
182.085007	118.035004	1099.708008	0.188125	-0.428750	-1.246875
184.830002	124.013000	1101.171997	0.538125	-0.306250	-1.343125
185.928009	127.429001	1100.196045	0.328125	-0.564375	-1.452500
175.497009	127.489998	1100.927979	-0.135625	-0.455000	-1.299375
182.695007	123.464005	1106.113037	-0.100625	-0.354375	-1.382500
177.753998	120.536003	1103.734009	0.476875	-0.468125	-1.579375
178.973999	118.828003	1102.880005	0.901250	-0.573125	-1.623125
181.352997	123.280998	1104.588013	1.085000	-0.398125	-1.618750
180.559998	134.932007	1098.305054	0.608125	-0.446250	-1.483125
180.194000	126.819000	1104.161011	0.170625	-0.529375	-1.509375
176.290009	119.376999	1103.124023	-0.087500	-0.323750	-1.378125
182.938995	121.389999	1108.552979	0.472500	-0.214375	-1.478750
176.716995	127.063004	1101.233032	0.660625	-0.446250	-1.395625
178.852005	124.928001	1101.660034	0.341250	-0.371875	-1.417500
178.363998	123.952003	1104.161011	0.039375	-0.389375	-1.378125
171.471008	122.000000	1107.211060	-0.485625	-0.109375	-1.321250
192.089005	146.216995	1107.515991	-3.959375	3.185000	-1.159375
161.406006	106.322998	1108.125977	-5.796875	4.637500	-0.914375
168.177002	107.970001	1111.237061	-5.880000	4.729375	-1.045625
167.994003	107.848000	1110.322021	-5.403125	4.742500	-0.892500
158.173004	105.529999	1108.125977	-5.775000	5.455625	-0.739375
152.988007	96.075005	1109.589966	-6.160000	6.033125	-0.560000
152.622009	89.609001	1111.420044	-6.510000	6.488125	-0.183750
143.899002	77.287003	1112.884033	-7.144375	7.078750	0.323750
136.701004	87.718002	1115.079956	-6.269375	6.571250	0.748125
133.956009	78.995003	1117.154053	-6.820625	7.350000	1.356250
127.551003	72.163002	1115.079956	-7.000000	7.651875	1.710625
113.582001	64.476997	1116.300049	-7.297500	8.023750	1.911875
120.597000	64.050003	1114.592041	-9.664375	10.355625	3.180625
107.909004	46.726002	1125.328003	-11.860625	12.236875	5.066250
98.027000	41.174999	1117.581055	-12.556250	12.551875	6.864375
89.853004	32.025002	1121.484985	-10.972500	11.720625	6.925625
76.677002	25.071001	1117.764038	-7.192500	7.940625	5.385625
76.494003	26.230000	1118.739990	-5.543125	5.853750	4.668125
80.459000	20.313000	1121.424072	-3.346875	3.766875	2.476250
71.431000	16.836000	1124.535034	-1.163750	1.754375	0.533750
72.468002	15.616000	1119.838013	-0.406875	0.678125	-0.083125
62.890999	13.786000	1115.690063	-1.159375	0.595000	0.686875
63.806000	8.357000	1115.446045	-0.078750	-1.509375	-1.194375
73.566002	12.749001	1123.681030	1.483125	-1.496250	-1.868125
64.476997	27.328001	1117.458984	1.723750	-0.481250	-1.680000
75.029999	10.126000	1118.495972	0.599375	-1.316875	-1.894375
67.161003	17.507000	1110.626953	0.511875	-0.656250	-1.627500
69.845001	10.675000	1116.360962	0.857500	-0.735000	-1.487500
69.540001	17.385000	1119.166992	0.896875	-0.564375	-1.553125
71.248001	9.821000	1120.447998	0.682500	-0.682500	-1.448125
67.709999	15.189000	1120.326050	0.555625	-0.708750	-1.400000
68.320000	17.995001	1117.398071	0.533750	-0.581875	-1.400000
70.272003	22.387001	1117.764038	0.721875	-0.647500	-1.478750
70.515999	14.823000	1119.716064	0.586250	-0.577500	-1.395625
70.515999	14.030000	1120.692017	0.669375	-0.533750	-1.491875
67.344002	11.956000	1123.315063	0.726250	-0.634375	-1.553125
78.812004	16.775000	1124.718018	0.358750	-0.616875	-1.400000
72.041000	18.177999	1119.959961	0.503125	-0.905625	-1.443750
69.662003	18.300001	1120.813965	0.669375	-0.192500	-1.500625
77.775002	15.250000	1114.896973	0.656250	-0.861875	-1.417500
67.892998	17.080000	1116.544067	0.516250	-0.678125	-1.421875
71.308998	29.768000	1112.274048	0.402500	-0.651875	-1.557500
61.427002	50.081001	1126.060059	0.971250	0.017500	-1.391250
83.142998	9.089000	1111.907959	1.369375	-1.697500	-1.649375
67.344002	17.263000	1120.265015	1.168125	0.621250	-1.890000
59.963001	15.006001	1120.447998	0.966875	0.043750	-1.666875
81.556999	23.363001	1120.082031	0.735000	-0.529375	-1.592500
48.799999	20.618000	1133.135986	0.214375	0.354375	-1.159375
72.285004	14.335000	1115.079956	0.087500	-1.268750	-1.518125
77.287003	13.542000	1113.372070	0.210000	-1.365000	-1.601250
69.479004	17.873001	1119.655029	0.673750	-0.643125	-1.478750
78.507004	21.777000	1121.667969	0.931875	-0.468125	-1.570625
65.391998	9.333000	1118.008057	0.813750	0.048125	-1.627500
75.884003	19.398001	1121.484985	0.542500	-0.879375	-1.509375
71.492004	15.372000	1121.302002	0.126875	-0.008750	-1.343125
62.525002	17.629000	1119.105957	0.332500	-0.135625	-1.268750
72.834000	18.422001	1116.300049	0.301875	-0.148750	-1.290625
65.453003	21.533001	1115.323975	0.148750	0.170625	-1.400000
71.187004	9.821000	1115.690063	0.481250	0.140000	-1.443750
64.598999	12.322001	1125.389038	0.398125	0.118125	-1.553125
60.756001	20.434999	1120.570068	0.669375	0.201250	-1.417500
62.098000	21.716000	1122.521973	0.415625	4.121250	-0.901250
62.341999	11.895000	1119.472046	-0.105000	4.611250	-0.630000
50.569000	14.823000	1120.082031	0.463750	2.795625	-0.949375
61.487999	19.703001	1121.667969	0.743750	3.443125	-0.962500
51.056999	14.518001	1123.742065	0.962500	5.328750	-0.704375
50.507999	14.518001	1124.229980	0.975625	7.231875	-0.485625
37.332001	15.250000	1121.424072	1.736875	10.386250	-0.555625
30.927000	20.801001	1123.864014	2.016875	11.611250	0.017500
22.264999	18.422001	1124.596069	1.588125	12.018125	0.468125
16.165001	21.899000	1117.581055	1.106875	9.983750	0.966875
7.137000	18.544001	1119.716064	0.713125	8.456875	1.448125
10.919000	23.363001	1118.739990	0.179375	8.028125	1.505000
-1.281000	21.350000	1123.802979	-0.135625	6.768125	1.181250
-4.758000	20.374001	1118.068970	-1.001875	8.295000	2.051875
-18.056000	12.993000	1123.437012	-2.275000	11.484375	3.775625
-22.326000	17.141001	1117.337036	-2.931250	12.521250	5.630625
-27.084000	11.285000	1121.484985	-4.291875	12.363750	7.113750
-44.652000	11.712000	1123.010010	-5.254375	10.998750	8.159375
-47.702000	5.185000	1122.400024	-5.827500	7.686875	8.688750
-58.499001	-2.501000	1121.057983	-6.680625	5.565000	10.053750
-55.815002	-4.636000	1119.716064	-6.680625	2.616250	8.102500
-53.802002	-6.466000	1119.716064	-5.560625	2.616250	8.102500
-53.802002	-6.466000	1117.764038	-2.410625	-0.288750	3.150000
-57.950001	-0.427000	1117.764038	-0.468125	-0.883750	-0.210000
-63.623001	-13.237000	1113.982056	0.275625	-0.966875	-1.334375
-54.961002	-4.453000	1119.411011	1.045625	-0.791875	-1.312500
-58.194000	-4.270000	1116.666016	0.861875	-0.546875	-1.386875
-59.902000	-5.734000	1120.509033	1.010625	-0.691250	-1.330000
-56.547001	-5.124000	1120.570068	1.120000	-0.520625	-1.382500
-53.862999	-10.797000	1116.056030	1.006250	-0.135625	-1.513750
-53.802002	-7.991000	1121.363037	1.351875	-0.210000	-1.575000
-56.608002	-6.100000	1116.666016	1.531250	0.083125	-1.688750
-56.608002	-7.564000	1109.406982	2.314375	1.076250	-3.342500
-67.771004	3.172000	1113.067017	2.218125	2.043125	-1.338750
-61.427002	-3.965000	1118.801025	1.925000	2.734375	1.666875
-65.879997	13.725000	1118.739990	3.430000	6.002500	3.714375
-73.139000	-5.124000	1116.177979	4.515000	11.230625	6.291250
-86.620003	3.843000	1111.786011	5.604375	9.213750	3.766875
-81.313004	14.030000	1117.825073	5.748750	7.179375	2.436875
-99.795998	15.616000	1114.225952	4.895625	6.873125	2.699375
-97.844002	14.152000	1111.176025	5.140625	5.757500	1.876875
-97.966003	19.825001	1112.761963	6.050625	7.450625	4.361875
-114.192001	28.731001	1113.372070	6.418125	7.393750	6.580000
-115.534004	31.171000	1120.265015	6.396250	3.220000	8.172500
-94.855003	45.750000	1110.016968	6.409375	1.767500	7.345625
-123.464005	27.938000	1115.994995	3.753750	3.495625	4.296250
-123.464005	45.932999	1113.250000	4.151875	2.388750	3.683750
-116.205002	45.018002	1109.833984	4.987500	2.445625	5.035625
-126.696999	43.188000	1115.506958	4.598125	3.640000	7.109375
-125.903999	46.542999	1106.967041	3.718750	2.756250	8.478750
-119.743004	49.715000	1115.385010	3.250625	3.097500	8.855000
-137.005997	54.716999	1111.297974	3.924375	5.600000	10.456250
-127.063004	66.001999	1109.468018	5.971875	7.245000	15.111250
-143.350006	66.734001	1114.165039	9.113125	8.229375	19.140625
-143.472000	80.520004	1109.712036	13.374375	9.515625	22.185625
-159.576004	92.842003	1098.427002	16.428125	10.075625	24.591875
-156.098999	104.554001	1103.916992	18.926250	11.519375	28.507500
-160.307999	129.869003	1098.061035	16.283751	10.364375	20.181875
-181.962997	143.960007	1089.155029	12.775000	6.995625	9.288125
-171.287994	142.374008	1094.156982	7.665000	4.169375	3.976875
-189.587997	152.438995	1087.935059	3.071250	-1.776250	-3.045000
-171.348999	141.703003	1102.880005	-0.350000	-2.397500	-2.113125
-171.531998	141.520004	1098.975952	-1.001875	-1.404375	-1.382500
-170.434006	142.862000	1091.717041	-0.638750	-1.225000	-1.666875
-175.497009	148.291000	1087.874023	0.074375	-0.953750	-1.408750
-187.574997	138.653000	1093.425049	0.078750	-0.494375	-1.386875
-146.460999	125.965004	1094.339966	1.435000	-1.076250	-1.500625
-166.652008	126.026001	1101.477051	1.255625	1.802500	-1.828750
-151.035995	108.580002	1117.276001	-0.345625	-3.766875	-0.980000
-181.779999	163.906998	1086.166016	0.161875	-0.551250	-1.780625
-160.125000	137.311005	1095.620972	0.791875	-0.437500	-1.553125
-177.998001	140.483002	1094.583984	0.638750	-0.595000	-1.491875
-167.139999	143.289001	1093.973999	0.643125	-0.459375	-1.378125
-170.068008	140.421997	1092.754028	0.717500	-0.665000	-1.522500
-170.921997	141.641998	1099.036987	0.621250	-0.691250	-1.483125
-176.290009	141.031998	1093.973999	0.621250	-0.669375	-1.465625
-172.934998	139.568008	1096.841064	0.542500	-0.656250	-1.522500
-165.615005	138.714005	1093.852051	0.564375	-0.691250	-1.518125
-170.983002	143.044998	1096.841064	0.621250	-0.752500	-1.535625
-173.850006	143.837997	1089.643066	0.555625	-0.498750	-1.505000
-173.850006	145.302002	1094.156982	0.546875	-0.420000	-1.548750
-167.322998	139.873001	1095.803955	0.511875	-0.538125	-1.500625
-172.691010	144.020996	1094.583984	0.581875	-0.708750	-1.435000
-170.678009	145.180008	1094.950073	0.608125	-0.616875	-1.518125
-173.606003	141.031998	1098.427002	0.673750	-0.551250	-1.461250
-170.494995	141.764008	1098.244019	0.590625	-0.625625	-1.465625
-180.255005	144.996994	1100.683960	0.529375	-0.599375	-1.505000
-168.481995	141.886002	1094.035034	0.529375	-0.595000	-1.500625
-172.874008	141.154007	1094.583984	0.608125	-0.595000	-1.566250
-172.264008	140.300003	1097.938965	0.616875	-0.590625	-1.474375
-171.531998	144.753006	1097.755981	0.564375	-0.603750	-1.443750
-170.678009	140.787994	1092.510010	0.463750	-0.643125	-1.426250
-172.141998	142.984009	1092.388062	0.616875	-0.621250	-1.343125
-171.897995	138.104004	1098.305054	0.656250	-0.577500	-1.452500
-170.678009	141.214996	1094.462036	0.713125	-0.577500	-1.491875
-169.458008	144.630997	1095.803955	0.608125	-0.695625	-1.557500
-172.996002	140.787994	1096.780029	0.595000	-0.577500	-1.500625
-168.055008	141.641998	1098.000000	0.577500	-0.603750	-1.470000
-170.190002	137.615997	1097.024048	0.555625	-0.625625	-1.391250
-170.434006	141.581009	1096.170044	0.621250	-0.568750	-1.435000
-172.751999	141.520004	1095.560059	0.665000	-0.581875	-1.369375
-171.166000	145.485001	1096.901978	0.546875	-0.533750	-1.435000
-178.059006	141.154007	1093.729980	0.555625	-0.581875	-1.478750
-173.667007	141.031998	1096.047974	0.616875	-0.625625	-1.540000
-169.641006	140.910004	1094.828003	0.625625	-0.603750	-1.500625
-173.484009	136.762009	1095.682007	0.608125	-0.586250	-1.382500
-170.128998	141.703003	1096.901978	0.551250	-0.573125	-1.400000
-178.059006	140.910004	1092.631958	0.599375	-0.630000	-1.645000
-168.421005	142.374008	1096.474976	0.603750	-0.590625	-1.439375
-166.164001	141.641998	1096.414062	0.603750	-0.577500	-1.522500
-168.238007	145.606995	1096.047974	0.538125	-0.542500	-1.553125
-172.020004	143.593994	1095.560059	0.608125	-0.616875	-1.456875
-170.800003	141.397995	1095.803955	0.577500	-0.590625	-1.369375
-183.061005	143.227997	1081.407959	0.621250	-0.739375	-1.491875
-161.833008	146.216995	1102.697021	0.704375	-0.546875	-1.439375
-158.173004	112.606003	1063.169067	0.389375	-0.708750	-1.369375
-155.367004	174.582001	1086.958984	0.227500	-1.382500	-1.360625
-180.865005	131.210999	1107.211060	0.546875	-0.249375	-1.487500
-168.725998	138.408997	1103.855957	0.131250	0.844375	-1.846250
-172.630005	129.990997	1096.718994	0.678125	1.579375	-2.183125
-174.947998	143.593994	1104.526978	2.616250	2.038750	-2.305625
-181.231003	166.347000	1092.083008	7.756875	2.065000	-8.925000
-182.268005	158.539001	1077.381958	12.079375	1.229375	-19.149376
-183.975998	145.485001	1092.265991	13.195000	1.036875	-20.269375
-178.059006	167.322998	1090.436035	10.644375	1.141875	-14.945000
-176.533997	168.604004	1089.703979	5.805625	1.163750	-8.785000
-189.832001	168.238007	1093.425049	7.249375	2.555000	-8.365000
-200.141006	166.042007	1078.723999	7.822500	4.668125	-7.109375
-196.481003	171.959000	1077.625977	6.680625	4.029375	-4.917500
-194.834000	182.024002	1080.980957	6.680625	4.029375	-4.681250
-210.206009	186.964996	1083.115967	7.791875	6.418125	-4.681250
-210.206009	186.964996	1083.115967	8.868125	9.130625	-5.626250
-210.816010	191.356995	1077.992065	11.576250	8.916250	-9.546250
-215.085999	203.984009	1082.201050	10.058125	8.058750	-9.559375
-228.201004	199.348007	1082.505981	8.710625	8.238125	-7.818125
-238.570999	203.434998	1070.367065	9.843750	9.375625	-7.787500
-246.867004	210.389008	1069.573975	10.661875	10.325000	-7.700000
-253.455002	227.529999	1054.933960	10.806250	9.581250	-7.866250
-253.150009	223.138000	1052.005981	8.120000	6.798750	-7.678125
-253.393997	224.479996	1066.157959	6.195000	3.535000	-8.303750
-270.230011	229.298996	1060.363037	5.232500	2.362500	-9.314375
-265.899017	228.628006	1053.775024	2.296875	0.188125	-5.092500
-261.873016	224.358002	1062.192993	0.424375	-1.141875	-2.533125
-279.257996	225.089996	1054.873047	0.560000	-1.973125	-1.920625
-258.822998	233.569000	1059.020996	-0.157500	-3.119375	-1.662500
-261.812012	221.857010	1062.315063	-0.433125	-2.883125	-1.596875
-261.080017	221.796005	1063.108032	-0.214375	-2.318750	-1.225000
-269.437012	223.382004	1061.034058	0.157500	-2.065000	-0.914375
-251.930008	236.192001	1057.739990	0.945000	-2.900625	-0.581875
-251.320007	242.231003	1063.291016	0.218750	-0.826875	-1.500625
-241.194000	258.640015	1069.390991	-0.538125	-1.067500	-1.675625
-268.705017	231.983002	1059.509033	0.555625	-0.660625	-1.400000
-252.173996	219.539001	1064.145020	0.538125	-0.603750	-1.408750
-263.825012	229.298996	1086.593018	-0.385000	0.087500	-1.798125
-238.570999	227.408005	1059.997070	0.017500	-1.246875	-1.483125
-250.160995	216.001007	1061.400024	0.262500	-0.857500	-1.570625
-242.597000	225.882996	1057.251953	0.284375	-0.420000	-1.579375
-234.789001	220.393005	1075.247070	-0.008750	2.913750	-1.596875
-289.688995	238.326996	1051.091064	-0.345625	1.723750	-1.964375
-247.416000	215.757004	1066.401978	0.078750	-0.258125	-2.008125
-273.341003	225.944000	1058.776978	0.087500	0.542500	-1.995000
-271.144989	236.680008	1053.592041	0.214375	-1.443750	-1.820000
-247.721008	215.147003	1065.670044	-0.380625	-0.262500	-2.135000
-269.803009	206.607010	1055.604980	0.328125	0.621250	-1.290625
-275.658997	224.113998	1052.982056	1.054375	-0.980000	-1.365000
-254.796997	224.968002	1061.948975	1.268750	-2.113125	-1.789375
-255.712006	231.007004	1060.790039	1.015000	-1.736875	-1.645000
-264.434998	225.151001	1056.520020	-0.131250	-1.758750	-1.898750
-257.359009	213.317001	1058.959961	-0.818125	-1.548750	-3.591875
-257.664001	225.699997	1068.171021	-2.961875	-2.051875	-6.825000
-248.819000	207.888000	1062.558960	-5.871250	-2.467500	-9.506875
-246.928009	203.617996	1070.733032	-8.036875	-1.365000	-13.593125
-270.169006	199.348007	1057.130005	-9.944375	-1.295000	-14.288750
-257.664001	192.210999	1068.842041	-11.760000	-1.833125	-16.874374
-266.020996	167.567001	1063.718018	-5.267500	0.647500	-13.046250
-281.942017	176.839005	1055.727051	-0.599375	-0.253750	-4.580625
-249.856003	172.020004	1073.478027	0.415625	-1.286250	-1.933750
-270.291016	185.684006	1066.463013	0.533750	-0.441875	-1.583750
-264.557007	168.238007	1069.756958	-0.398125	-1.273125	-1.758750
-264.862000	177.815002	1065.670044	-2.813125	-1.277500	-1.732500
-262.910004	171.348999	1067.622070	-5.766250	-1.386875	-0.450625
-263.519989	159.637009	1067.865967	-11.475625	-3.259375	0.848750
-258.945007	152.682999	1071.221069	-13.597500	-4.751250	-0.380625
-245.464005	148.108002	1084.336060	-17.080000	-5.770625	0.091875
-248.270004	131.393997	1075.490967	-18.182501	-4.501875	-0.573125
-262.299988	113.947998	1077.504028	-12.420625	-3.058125	-1.907500
-256.382996	119.133003	1077.138062	-7.231875	-2.795625	-1.229375
-247.354996	110.715004	1080.737061	-5.963125	-3.578750	0.144375
-240.401001	99.369003	1082.872070	-7.586250	-4.261250	1.242500
-236.863007	93.025002	1079.943970	-11.659375	-4.838750	3.771250
-234.727997	90.524002	1084.885010	-14.420000	-5.079375	7.966875
-229.908997	79.971001	1083.359985	-15.334375	-4.611250	10.513125
-237.595001	68.990997	1082.261963	-8.575000	-3.605000	4.825625
-232.714996	75.579002	1088.789062	-5.547500	-3.482500	2.690625
-231.190002	67.527000	1087.264038	-3.416875	-2.712500	0.770000
-227.835007	72.163002	1085.190063	-0.463750	-1.706250	-0.883750
-223.931000	62.525002	1088.666992	-0.875000	-1.465625	-1.015000
-227.652008	67.404999	1088.849976	-1.032500	-1.106875	-1.264375
-229.115997	56.303001	1089.459961	-1.575000	-2.296875	-0.958125
-223.686996	60.817001	1091.656006	-3.080000	-3.670625	-0.765625
-224.723999	53.375000	1088.849976	-3.141250	-4.808125	-1.885625
-212.768005	58.987000	1094.156982	-4.300625	-6.483750	-2.699375
-204.410995	51.423000	1089.582031	-6.002500	-8.785000	-3.797500
-210.206009	45.079002	1095.133057	-4.147500	-7.953750	-4.554375
-214.964005	39.894001	1095.560059	-3.023125	-7.984375	-4.987500
-193.309006	45.079002	1098.182983	-1.211875	-7.385000	-4.519375
-190.380997	38.125000	1095.926025	-1.251250	-7.835625	-3.101875
-183.427002	32.146999	1099.525024	-1.732500	-12.779375	-1.299375
-191.723007	37.393002	1100.440063	-1.225000	-14.188125	-1.461250
-154.634995	42.882999	1106.113037	-0.485625	-13.321875	-1.050000
-167.872009	39.894001	1107.760010	-0.590625	-11.567500	-0.538125
-149.022995	30.439001	1101.354980	0.713125	-10.447500	-1.426250
-139.018997	36.783001	1106.234985	1.631875	-12.748750	-1.461250
-135.481003	29.707001	1111.237061	2.257500	-15.688750	-2.633750
-128.160995	38.125000	1105.625000	3.495625	-15.583750	-5.162500
-115.045998	36.966000	1112.701050	3.640000	-17.696875	-5.416250
-100.772003	42.395000	1114.958008	3.688125	-16.681875	-4.248125
-89.792000	46.055000	1117.276001	2.996875	-12.005000	-2.611875
-91.987999	40.199001	1118.618042	1.863750	-9.170000	-1.295000
-86.193001	41.968002	1117.031982	1.531250	-7.170625	-1.229375
-75.517998	49.959000	1116.910034	1.715000	-6.041875	-1.785000
-76.737999	45.993999	1111.237061	1.400000	-3.631250	-2.086875
-69.357002	59.902000	1116.117065	1.190000	0.564375	-1.938125
-67.099998	25.620001	1120.143066	0.468125	0.835625	-1.907500
-109.495003	97.173004	1116.177979	0.262500	1.715000	-1.776250
-86.315002	49.410000	1114.469971	0.485625	-0.441875	-1.168125
-88.450005	43.980999	1124.291016	-0.546875	0.227500	-1.365000
-79.726997	38.003002	1120.326050	-0.074375	-0.100625	-1.365000
-73.871002	33.184002	1115.690063	0.310625	-0.656250	-1.461250
-83.752998	49.410000	1111.541992	0.507500	-0.704375	-1.500625
-77.165001	45.018002	1116.360962	0.573125	-0.625625	-1.391250
-81.739998	47.519001	1115.446045	0.542500	-0.468125	-1.408750
-84.302002	38.979000	1117.825073	0.616875	-0.415625	-1.553125
-76.067001	43.249001	1119.472046	0.608125	-0.503125	-1.443750
-77.470001	45.383999	1115.567993	0.533750	-0.603750	-1.439375
-82.899002	39.466999	1115.446045	0.538125	-0.608125	-1.526875
-73.139000	48.983002	1117.703003	0.586250	-0.551250	-1.535625
-75.884003	45.628002	1109.773071	0.621250	-0.612500	-1.408750
-89.792000	34.831001	1114.896973	1.001875	-0.805000	-1.583750
-74.542000	44.347000	1113.615967	0.809375	-0.420000	-1.710625
-91.865997	54.107002	1121.607056	1.155000	-1.505000	-1.579375
-66.917000	42.028999	1118.374023	1.155000	-1.505000	-1.316875
-66.917000	51.789001	1117.031982	1.098125	-2.117500	-1.316875
-78.750999	51.789001	1117.031982	1.408750	-1.662500	-1.535625
-77.835999	40.077000	1112.640015	1.605625	-1.483125	-1.452500
-57.401001	59.719002	1103.185059	7.616875	-6.387500	-0.065625
-75.274002	55.998001	1124.535034	12.801250	-11.331250	0.179375
-67.649002	51.728001	1117.337036	13.575625	-12.171250	-2.520000
-37.332001	86.681000	1118.251953	15.373750	-13.663125	-5.573750
-55.144001	86.132004	1121.729004	14.949375	-14.853125	-7.341250
-35.929001	96.258003	1111.724976	9.686250	-10.871875	-4.589375
-18.544001	78.568001	1115.140991	7.533750	-10.644375	-1.614375
-19.764000	99.612999	1121.363037	6.431250	-8.662500	-0.822500
-14.091001	113.704002	1111.480957	5.993750	-8.316875	-1.238125
-8.113000	106.567001	1124.718018	5.993750	-9.870000	-1.872500
3.416000	120.048004	1119.472046	6.912500	-11.760000	-1.085000
1.464000	118.218002	1119.593994	7.669375	-15.500625	0.595000
22.021000	118.096001	1114.958008	7.245000	-14.503125	0.966875
28.365000	123.525002	1105.990967	6.505625	-13.702500	0.940625
39.284000	128.283005	1122.521973	5.280625	-10.316250	-0.013125
38.674000	136.212997	1114.652954	4.475625	-10.001250	0.765625
43.126999	133.834000	1114.836060	2.695000	-6.641250	-0.778750
60.512001	147.132004	1110.932007	3.338125	-5.302500	-0.406875
45.018002	137.188995	1117.458984	4.602500	-8.019375	0.004375
61.732002	144.509003	1117.031982	4.716250	-8.045625	-1.159375
73.809998	144.570007	1112.274048	4.375000	-7.713125	-2.248750
72.590004	147.315002	1113.982056	3.950625	-7.520625	-1.754375
77.897003	150.487000	1111.297974	3.920000	-8.395625	-1.032500
74.298004	148.108002	1116.360962	4.160625	-10.101875	-0.455000
93.390999	154.513000	1102.635986	4.340000	-10.294375	-0.643125
96.319000	160.125000	1111.724976	4.116875	-9.445625	-1.382500
106.627998	158.234009	1108.369995	4.418750	-10.644375	-1.461250
102.846001	161.345001	1106.906006	4.099375	-10.031875	-1.207500
118.950005	168.298996	1104.222046	3.307500	-8.400000	-1.168125
118.950005	167.262009	1106.174072	3.045000	-7.739375	-0.826875
128.953995	167.384003	1109.529053	2.498125	-5.197500	-1.163750
124.928001	174.520996	1100.623047	1.233750	-1.216250	-1.483125
131.210999	172.874008	1106.844971	0.437500	-0.498750	-1.443750
127.734001	166.712997	1110.383057	0.271250	-0.030625	-1.404375
113.704002	170.861008	1104.526978	0.188125	-0.048125	-1.531250
125.050003	162.320999	1110.139038	0.691250	0.065625	-1.841875
115.107002	162.259995	1105.076050	0.774375	-0.210000	-1.601250
123.769005	169.275009	1105.442017	0.730625	-0.870625	-1.610000
132.553009	173.423004	1104.709961	0.411250	-0.026250	-1.544375
127.612000	168.848007	1098.305054	0.153125	-0.210000	-1.623125
119.133003	149.815994	1108.858032	-0.455000	1.106875	-1.308125
136.762009	197.152008	1089.947998	-0.336875	-0.866250	-2.104375
129.990997	160.247009	1101.294067	0.529375	-1.828750	-2.502500
119.255005	160.673996	1109.773071	0.437500	-0.533750	-1.715000
129.503006	168.177002	1106.417969	0.490000	-0.643125	-1.369375
121.695000	166.408005	1103.855957	0.704375	-0.599375	-1.540000
120.292000	167.872009	1104.343994	0.551250	-0.616875	-1.470000
126.819000	169.091995	1103.734009	0.560000	-0.525000	-1.417500
120.353004	165.919998	1106.600952	0.573125	-0.516250	-1.408750
122.244003	165.309998	1106.661987	0.608125	-0.533750	-1.347500
123.952003	168.787003	1107.760010	0.577500	-0.700000	-1.500625
116.083000	160.979004	1103.489990	0.472500	-0.568750	-1.408750
118.766998	164.272995	1107.698975	0.634375	-0.595000	-1.435000
128.953995	169.275009	1105.686035	0.770000	-0.656250	-1.526875
99.307999	155.306000	1118.374023	0.459375	-0.240625	-1.194375
139.873001	166.164001	1098.609985	-0.043750	-2.524375	-1.155000
116.815002	169.153000	1102.818970	-0.258125	-0.883750	-1.356250
128.100006	160.490997	1105.136963	-0.936250	-0.678125	-1.264375
119.133003	154.634995	1111.847046	-1.286250	-1.308125	-1.019375
118.096001	175.985001	1106.600952	-4.528125	-1.986250	-0.367500
125.233002	148.779007	1107.027954	-8.443750	-2.537500	-0.892500
117.913002	151.462997	1111.237061	-12.906250	-2.905000	-4.226250
129.686005	137.371994	1111.541992	-14.017500	-2.918125	-6.133750
132.309006	129.259003	1108.614014	-10.430000	-2.314375	-5.604375
129.563995	123.769005	1112.822998	-6.571250	-1.920625	-2.931250
126.880005	124.440002	1115.202026	-4.248125	-1.373750	-1.942500
131.699005	120.048004	1111.297974	-4.851875	-1.203125	-0.848750
125.843002	100.772003	1109.712036	-9.388750	-1.645000	0.113750
129.014999	108.397003	1116.483032	-14.310625	-2.498125	-0.752500
142.130005	90.279999	1113.738037	-17.377501	-2.918125	-0.306250
142.374008	78.263000	1117.947021	-23.467501	-3.828125	0.564375
140.421997	45.993999	1112.457031	-25.445000	-2.957500	-2.458750
139.080002	38.491001	1111.053955	-22.820000	-2.738750	-4.576250
146.583008	22.570000	1120.753052	-19.403126	-3.053750	-3.320625
146.766006	12.017000	1112.945068	-14.091875	-2.830625	-2.673125
139.628998	2.501000	1106.234985	-11.480000	-3.705625	0.555625
143.533005	-3.599000	1111.603027	-9.467500	-4.116875	1.697500
157.380005	-14.701000	1107.638062	-6.339375	-3.491250	0.761250
149.266998	-14.152000	1112.701050	-3.766875	-2.598750	-0.201250
147.132004	-15.738000	1114.225952	-2.660000	-2.384375	-0.389375
161.406006	-20.984001	1107.333008	-4.265625	-3.421250	0.161875
152.438995	-27.999001	1112.213013	-6.549375	-5.022500	0.529375
157.563004	-27.205999	1115.994995	-8.102500	-6.125000	0.455000
164.761002	-36.904999	1107.698975	-8.710625	-6.951875	-0.918750
165.919998	-34.831001	1112.457031	-5.858125	-5.757500	-1.645000
172.691010	-47.031002	1105.625000	-4.108125	-4.943750	-1.435000
175.740997	-50.874001	1107.394043	-2.703750	-4.427500	-1.207500
179.279007	-46.665001	1108.004028	-1.750000	-3.941875	-1.137500
172.934998	-51.605999	1102.818970	-1.701875	-3.605000	-1.058750
182.695007	-49.532001	1102.880005	-0.966875	-3.495625	-0.914375
180.072006	-48.556000	1103.368042	-0.332500	-2.996875	-0.953750
184.403000	-47.458000	1106.844971	-0.608125	-2.445625	-1.032500
182.268005	-57.645000	1102.880005	0.630000	-0.879375	-1.496250
180.072006	-49.593002	1104.099976	0.612500	-0.437500	-1.417500
186.477005	-59.963001	1104.466064	0.761250	-0.621250	-1.439375
188.124008	-52.033001	1106.967041	1.128750	-0.323750	-1.658125
183.122009	-52.094002	1103.368042	0.516250	-0.223125	-1.382500
186.598999	-49.410000	1107.577026	1.124375	0.354375	-1.666875
180.011002	-35.624001	1100.256958	0.354375	0.481250	-1.505000
172.934998	-50.020000	1108.796997	0.354375	0.669375	-1.723750
177.936996	-42.272999	1102.087036	1.050000	0.669375	-1.723750
177.936996	-42.272999	1114.348022	1.120000	0.315000	-1.815625
171.593002	-54.595001	1114.348022	0.739375	0.017500	-1.636250
178.303009	-49.837002	1105.869019	2.082500	-0.192500	-1.990625
177.509995	-33.062000	1103.855957	1.211875	-1.588125	-1.618750
181.352997	-34.647999	1109.773071	0.078750	-1.500625	-1.356250
188.550995	-33.549999	1099.525024	-0.441875	-0.437500	-1.330000
172.020004	-71.918999	1110.443970	-1.089375	-0.315000	-1.054375
189.710007	-45.383999	1106.417969	0.717500	-2.275000	-2.178750
169.091995	-57.278999	1105.320068	0.691250	-0.752500	-1.579375
187.574997	-47.214001	1100.440063	0.441875	-0.507500	-1.439375
179.522995	-56.424999	1105.015015	0.577500	-0.708750	-1.561875
184.525009	-53.253002	1106.296021	0.616875	-0.603750	-1.369375
203.069000	-50.630001	1104.222046	0.778750	-0.468125	-1.487500
137.738007	-61.061001	1092.937012	1.036875	-0.402500	-1.500625
189.527008	-57.522999	1104.343994	0.905625	-1.863750	-1.583750
190.563995	-93.695999	1116.910034	1.837500	-1.435000	-1.806875
187.757996	-47.091999	1104.526978	0.708750	-2.012500	-1.155000
172.996002	-46.848000	1110.505005	0.875000	-1.421875	-1.181250
188.490005	-48.922001	1102.818970	-0.070000	-1.128750	-1.050000
180.255005	-61.792999	1105.625000	0.315000	-0.910000	-1.347500
184.037003	-51.118000	1105.197998	0.520625	-1.461250	-1.220625
208.559006	-51.605999	1087.020020	1.806875	-3.154375	-0.818125
185.623001	-36.234001	1101.416016	7.643125	-13.553750	3.648750
207.216995	-44.103001	1104.405029	10.968125	-18.165001	4.921875
211.365005	-26.169001	1103.489990	11.130000	-15.614375	3.626875
216.244995	-26.230000	1101.294067	8.898750	-14.231875	2.839375
236.740997	-28.548000	1101.050049	8.312500	-14.126875	2.340625
244.915009	-12.810000	1093.058960	8.111250	-12.236875	1.058750
248.209000	-20.191000	1100.744995	7.590625	-12.420625	0.665000
254.919006	-15.921000	1096.170044	7.192500	-12.656875	0.805000
268.765991	-8.723001	1091.167969	5.560625	-7.761250	-0.529375
264.862000	-4.209000	1092.388062	3.482500	-3.723125	-1.080625
265.472015	-2.196000	1093.729980	0.949375	-0.739375	-1.461250
267.790009	-11.041000	1090.924072	0.301875	0.035000	-1.544375
264.373993	-5.917000	1090.313965	0.288750	0.131250	-1.522500
267.606995	-2.379000	1093.058960	0.376250	0.214375	-1.430625
268.399994	-4.148000	1090.802002	0.214375	0.323750	-1.531250
260.653015	-16.287001	1092.388062	-0.175000	0.196875	-1.295000
252.113007	-4.636000	1092.998047	0.301875	-0.175000	-1.194375
261.506989	-15.921000	1092.388062	0.936250	-0.511875	-1.281875
271.755005	-10.919000	1095.743042	0.564375	0.170625	-1.566250
232.348999	20.374001	1093.852051	0.144375	-0.078750	-1.566250
269.924988	-9.028000	1089.216064	0.853125	-1.023750	-1.942500
257.968994	-11.590000	1095.499023	0.651875	-0.730625	-1.592500
261.263000	-6.283000	1092.998047	0.564375	-0.546875	-1.544375
260.347992	-8.418000	1091.900024	0.564375	-0.564375	-1.570625
262.971008	-8.906000	1093.242065	0.599375	-0.511875	-1.540000
262.666016	-6.161000	1087.630005	0.516250	-0.525000	-1.540000
260.713989	-8.052000	1093.669067	0.603750	-0.586250	-1.452500
261.201996	-6.710000	1091.411987	0.590625	-0.573125	-1.426250
268.217010	-8.784000	1086.531982	0.612500	-0.695625	-1.435000
254.492004	-10.248000	1093.669067	0.669375	-0.695625	-1.610000
263.580994	-13.176001	1086.471069	0.713125	-0.310625	-1.531250
263.398010	-9.699000	1090.253052	0.708750	-0.498750	-1.448125
270.535004	-5.917000	1083.542969	0.625625	-0.787500	-1.496250
266.570007	-6.100000	1093.302979	0.665000	-0.266875	-1.382500
250.466003	-9.638000	1105.563965	0.603750	-0.245000	-1.404375
270.169006	-8.784000	1090.313965	0.835625	-0.507500	-1.561875
255.468002	-13.420000	1096.474976	0.813750	-0.494375	-1.553125
261.873016	-5.917000	1090.740967	0.809375	-0.713125	-1.483125
261.201996	-6.344000	1094.523071	0.695625	-0.923125	-1.465625
264.312988	-2.379000	1099.525024	0.875000	-0.931875	-1.588125
259.981995	0.915000	1088.178955	0.686875	-0.686875	-1.640625
259.615997	-6.649000	1090.619019	0.656250	-0.739375	-1.413125
265.532990	-2.989000	1092.388062	0.673750	-0.341250	-1.365000
265.106018	-11.651000	1085.617065	0.498750	0.035000	-1.365000
260.347992	-4.575000	1091.107056	0.450625	0.319375	-1.465625
264.069000	-11.041000	1093.119995	0.253750	-0.140000	-1.386875
267.606995	3.050000	1093.852051	-0.166250	0.437500	-1.404375
256.261017	-40.992001	1104.953979	1.312500	-0.148750	-1.863750
257.541992	-27.694000	1090.070068	1.019375	-0.288750	-1.592500
290.542999	21.410999	1072.989990	-0.157500	-0.752500	-1.343125
245.708008	-25.375999	1096.841064	-0.735000	-0.577500	-1.115625
266.509003	-8.662000	1091.900024	0.490000	-0.166250	-1.316875
287.737000	-67.954002	1073.355957	1.124375	-2.865625	-1.255625
219.660995	15.067000	1046.821045	0.634375	-2.502500	-2.113125
260.592010	-19.398001	1097.938965	0.170625	-1.089375	-1.736875
264.069000	-18.788000	1109.833984	0.433125	-0.437500	-1.456875
255.651001	-9.577000	1106.784058	-0.065625	-0.087500	-1.456875
263.093018	-17.019001	1098.792969	-0.122500	0.730625	-1.470000
261.324005	1.403000	1090.497070	0.297500	0.700000	-1.456875
257.175995	-6.527000	1088.362061	0.665000	-0.056875	-1.513750
254.492004	-4.758000	1088.362061	1.036875	-0.271250	-1.478750
253.760010	-7.076000	1090.619019	0.542500	-0.573125	-1.509375
254.736008	-12.627000	1089.093994	0.240625	-0.415625	-1.579375
233.691010	-13.054000	1095.864990	0.179375	0.984375	-1.238125
261.567993	0.488000	1094.096069	0.275625	4.064375	-1.198750
250.770996	-1.830000	1100.135010	-0.161875	6.177500	-1.596875
248.148010	-7.869000	1095.803955	-0.875000	7.476875	-1.911875
233.141998	-22.326000	1098.182983	-1.570625	11.598125	-2.423750
226.005005	-7.198000	1096.414062	-1.623125	15.155000	-2.756250
210.938004	-10.858000	1100.623047	-2.073750	15.776250	-2.721250
212.279999	-16.653000	1106.234985	-2.576875	15.649375	-2.786875
192.638000	-22.082001	1101.781982	-3.412500	15.855000	-3.049375
185.501007	-23.668001	1103.612061	-3.307500	14.848750	-3.303125
177.693008	-27.816000	1109.529053	-2.520000	13.072500	-3.381875
168.177002	-21.899000	1112.091064	-2.244375	9.830625	-2.931250
162.320999	-27.267000	1107.394043	-2.480625	10.075625	-3.386250
151.462997	-27.205999	1109.223999	-1.946875	9.611875	-3.311875
147.619995	-30.866001	1109.589966	-1.570625	7.201250	-2.918125
138.165009	-21.899000	1109.468018	-2.139375	6.400625	-2.852500
133.712006	-28.487000	1113.921021	-3.136875	6.816250	-2.922500
129.686005	-36.295002	1115.690063	-5.481875	11.703125	-4.033750
108.945999	-51.118000	1115.567993	-6.278125	18.278749	-6.278125
101.565002	-44.834999	1111.420044	-3.723125	20.028749	-8.242500
96.501999	-36.295002	1117.458984	-1.793750	16.008125	-7.673750
83.264999	-46.786999	1113.250000	-1.229375	9.458750	-5.162500
78.140999	-50.507999	1123.192993	-1.229375	9.458750	-4.313750
78.140999	-36.355999	1117.337036	-0.888125	7.245000	-4.313750
70.455002	-36.355999	1117.337036	-1.190000	6.903750	-3.876250
64.233002	-48.129002	1116.544067	-1.522500	8.106875	-4.270000
56.181000	-48.434002	1116.421997	-1.964375	10.342500	-5.219375
54.656002	-49.776001	1113.738037	-2.450000	14.218750	-6.833750
38.796001	-49.653999	1110.810059	-2.918125	17.609375	-8.071875
27.999001	-55.327000	1123.742065	-2.992500	20.125000	-9.428125
8.418000	-64.233002	1114.409058	-2.541875	19.022499	-11.038125
-3.843000	-62.830002	1117.458984	-1.999375	14.293125	-9.874375
-11.285000	-60.389999	1114.713989	-0.669375	12.678750	-10.167500
-7.869000	-64.660004	1116.300049	0.196875	12.040000	-10.885000
-32.146999	-63.074001	1115.690063	1.496250	8.955625	-10.198125
-32.330002	-55.693001	1116.544067	4.510625	10.058125	-13.133750
-32.574001	-54.046001	1119.411011	4.208750	9.651250	-13.593125
-45.872002	-60.817001	1115.812012	1.925000	8.365000	-9.520000
-56.669003	-56.547001	1115.690063	1.172500	12.131875	-9.296875
-57.584000	-53.253002	1116.056030	0.516250	14.231875	-9.506875
-81.434998	-58.072002	1106.357056	0.371875	9.445625	-6.693750
-76.189003	-59.414001	1110.749023	1.456875	8.299375	-7.708750
-76.982002	-55.205002	1114.775024	1.649375	4.068750	-5.989375
-78.690002	-51.789001	1110.687988	1.863750	1.907500	-4.641875
-91.805000	-53.436001	1109.956055	1.115625	-0.148750	-2.555000
-67.282997	-66.978004	1109.956055	0.918750	-2.655625	-1.225000
-67.832001	-59.597000	1113.555054	0.385000	-2.900625	-0.472500
-114.557999	-96.319000	1083.848022	2.034375	-0.433125	-2.130625
-27.084000	-11.651000	1109.406982	1.592500	-3.338125	-1.071875
-89.792000	-58.926003	1108.004028	1.015000	-0.297500	-1.868125
-68.259003	-58.072002	1115.873047	0.647500	-0.433125	-1.487500
-75.334999	-57.218002	1113.738037	0.564375	-1.045625	-1.321250
-78.323997	-57.096001	1109.833984	0.717500	-0.748125	-1.360625
-74.847000	-53.008999	1113.921021	0.660625	-0.599375	-1.487500
-74.786003	-56.364002	1109.589966	0.577500	-0.568750	-1.535625
-75.396004	-57.950001	1112.945068	0.603750	-0.669375	-1.557500
-68.137001	-47.885002	1117.093018	0.048125	-0.590625	-1.391250
-62.890999	-47.214001	1110.749023	0.511875	-1.163750	-1.229375
-78.445999	-60.268002	1109.712036	0.625625	-0.118125	-1.435000
-71.431000	-48.190002	1113.677002	0.721875	-0.494375	-1.491875
-75.274002	-58.011002	1111.541992	0.713125	-0.809375	-1.351875
-80.581001	-48.007000	1117.703003	0.717500	-0.367500	-1.417500
-67.587997	-56.669003	1115.567993	0.616875	-0.665000	-1.426250
-69.174004	-52.277000	1115.690063	0.717500	-0.560000	-1.601250
-65.574997	-49.105000	1115.079956	0.481250	-0.511875	-1.391250
-86.681000	-45.567001	1111.176025	0.319375	-0.179375	-1.421875
-69.295998	-55.570999	1114.652954	1.006250	-0.131250	-1.408750
-77.042999	-52.643002	1113.982056	0.770000	-0.056875	-1.522500
-73.871002	-54.656002	1111.664062	0.700000	-0.030625	-1.509375
-77.835999	-46.177002	1117.458984	0.634375	-0.087500	-1.592500
-77.835999	-54.961002	1116.666016	0.581875	0.043750	-1.592500
-74.237000	-46.786999	1110.749023	0.708750	0.350000	-1.618750
-72.468002	-50.386002	1108.369995	0.717500	0.205625	-1.938125
-73.200005	-59.841000	1111.724976	1.570625	1.054375	-3.018750
-84.850998	-49.288002	1107.881958	2.423750	1.124375	-4.624375
-78.263000	-47.945999	1119.716064	2.975000	1.260000	-5.853750
-81.374001	-49.288002	1116.300049	3.062500	1.925000	-6.256250
-86.558998	-47.945999	1112.030029	3.465000	2.235625	-7.008750
-89.669998	-47.824001	1109.589966	3.329375	2.060625	-6.671875
-85.583000	-37.088001	1118.801025	1.903125	1.023750	-3.640000
-88.571999	-40.382000	1108.308960	0.730625	-0.581875	-1.688750
-93.208000	-47.153000	1114.775024	0.297500	-1.601250	-1.216250
-81.984001	-41.663002	1115.079956	0.328125	-1.815625	-1.203125
-80.764000	-45.750000	1113.005981	0.516250	-1.338750	-1.491875
-81.984001	-42.028999	1109.956055	0.577500	-1.041250	-1.513750
-81.496002	-43.310001	1110.443970	0.643125	-0.459375	-1.513750
-78.873001	-46.360001	1115.385010	0.669375	-0.310625	-1.579375
-89.487000	-43.371002	1113.372070	0.551250	-0.682500	-1.553125
-79.056000	-49.471001	1118.678955	0.647500	-0.678125	-1.408750
-79.666000	-43.859001	1113.188965	0.538125	-0.546875	-1.470000
-85.339005	-39.223000	1114.469971	0.533750	-0.336875	-1.303750
-80.825005	-45.688999	1113.005981	0.875000	0.306250	-1.522500
-89.974998	-41.418999	1110.566040	0.748125	-0.013125	-1.579375
-86.437004	-42.944000	1111.907959	0.708750	-0.157500	-1.575000
-86.863998	-45.262001	1115.750977	0.791875	-0.262500	-1.500625
-89.914001	-39.833000	1113.005981	0.546875	-0.590625	-1.535625
-81.923004	-49.227001	1115.994995	0.389375	-0.988750	-1.421875
-90.097000	-46.421001	1108.065063	0.665000	-0.708750	-1.369375
-83.997002	-42.517002	1116.971069	0.455000	-1.023750	-1.312500
-82.472000	-43.798000	1112.151978	0.306250	-0.966875	-1.321250
-89.853004	-43.431999	1114.592041	0.424375	-0.940625	-1.290625
-83.752998	-45.750000	1111.664062	0.398125	-0.831250	-1.430625
-84.424004	-45.139999	1113.005981	0.494375	-0.704375	-1.360625
-81.679001	-45.018002	1115.994995	0.485625	-0.787500	-1.421875
-88.754997	-46.360001	1111.176025	0.538125	-0.791875	-1.408750
-83.752998	-44.408001	1112.640015	0.538125	-0.647500	-1.439375
-85.034004	-45.750000	1110.322021	0.533750	-0.783125	-1.417500
-89.792000	-45.383999	1115.873047	0.608125	-0.678125	-1.496250
-83.142998	-49.776001	1116.177979	0.546875	-0.625625	-1.548750
-84.302002	-45.445000	1115.690063	0.621250	-0.630000	-1.522500
-85.765999	-41.785000	1111.541992	0.660625	-0.433125	-1.465625
-81.313004	-45.139999	1113.005981	0.490000	-0.511875	-1.540000
-88.754997	-45.018002	1111.907959	0.551250	-0.380625	-1.500625
-86.742004	-44.042000	1117.093018	0.660625	-0.288750	-1.439375
-81.069000	-43.310001	1111.480957	0.831250	-0.039375	-1.531250
-81.618004	-42.090000	1109.956055	0.805000	0.070000	-1.448125
-78.750999	-48.373001	1121.546021	0.905625	1.246875	-1.561875
-115.595001	-49.043999	1114.775024	-1.238125	9.410625	3.351250
-96.684998	-45.079002	1108.675049	-4.690000	13.676250	10.683750
-111.874001	-47.214001	1109.102051	-6.461875	12.906250	13.405000
-120.109001	-55.083000	1115.994995	-5.236875	9.633750	10.399375
-128.160995	-58.438000	1108.187012	-3.513125	7.682500	7.568750
-135.968994	-58.194000	1103.978027	-3.246250	6.142500	7.328125
-133.712006	-60.389999	1105.197998	-3.657500	5.582500	7.848750
-146.095001	-65.391998	1103.612061	-4.493125	5.600000	9.165625
-148.473999	-59.597000	1103.124023	-5.390000	5.560625	10.583125
-146.216995	-63.928001	1104.832031	-5.079375	5.823125	10.237500
-159.210007	-65.391998	1099.098022	-5.079375	5.901875	9.397500
-169.275009	-73.383003	1097.268066	-4.948125	5.901875	9.397500
-169.275009	-73.383003	1097.268066	-4.729375	5.726875	8.347500
-168.725998	-79.848999	1101.964966	-4.633125	6.597500	8.369375
-176.839005	-75.701004	1097.755981	-6.186250	7.756875	10.946250
-180.072006	-85.217003	1093.364014	-6.811875	7.800625	11.917500
-188.550995	-80.093002	1095.193970	-6.405000	7.647500	11.410000
-196.359009	-83.204002	1088.301025	-6.413750	6.995625	11.309375
-197.762009	-85.765999	1087.630005	-6.269375	6.317500	11.042500
-209.779007	-95.343002	1089.459961	-5.543125	5.035625	9.581250
-208.253998	-93.818001	1087.751953	-4.628750	3.972500	7.538125
-214.781006	-91.072998	1083.482056	-4.392500	3.066875	7.371875
-198.005997	-90.646004	1077.808960	-3.482500	1.408750	5.722500
-212.524002	-96.684998	1086.714966	-1.964375	0.730625	2.686250
-217.647995	-95.526001	1083.482056	-0.157500	-0.293125	-0.507500
-221.552002	-104.249001	1079.212036	0.481250	-1.308125	-1.461250
-222.772003	-97.417000	1080.066040	0.035000	-2.086875	-1.636250
-215.025009	-103.028999	1088.422974	0.288750	-2.415000	-1.693125
-205.630997	-103.578003	1092.083008	0.752500	-2.091250	-1.386875
-209.229996	-99.979004	1088.605957	0.402500	-0.748125	-1.505000
-222.710999	-97.783005	1079.395020	0.406875	-0.717500	-1.531250
-208.863998	-108.885002	1080.797974	0.730625	-0.879375	-1.509375
-207.400009	-93.573997	1082.628052	1.299375	0.126875	-1.299375
-207.033997	-96.868004	1090.009033	0.621250	-1.268750	-1.557500
-208.010010	-90.951004	1084.396973	0.262500	-2.563750	-1.649375
-212.279999	-101.931000	1083.725952	0.455000	-1.522500	-1.391250
-210.022995	-100.162003	1083.604004	0.590625	-0.770000	-1.351875
-214.841995	-106.689003	1085.617065	0.560000	-0.669375	-1.452500
-211.121002	-97.173004	1086.654053	0.568750	-0.568750	-1.513750
-210.206009	-101.138000	1085.433960	0.568750	-0.678125	-1.500625
-211.548004	-98.942001	1087.264038	0.586250	-0.581875	-1.513750
-215.451996	-95.221001	1081.774048	0.538125	-0.542500	-1.395625
-210.389008	-97.844002	1086.348999	0.564375	-0.590625	-1.408750
-210.206009	-106.567001	1081.286011	0.857500	-0.787500	-1.496250
-211.182007	-98.759003	1089.399048	0.717500	-1.015000	-1.255625
-202.093002	-103.639000	1081.834961	0.638750	-0.971250	-1.386875
-216.794006	-78.873001	1085.494995	0.625625	-0.350000	-1.496250
-202.031998	-104.005005	1083.115967	0.446250	-0.367500	-1.491875
-210.266998	-102.601997	1086.471069	1.535625	0.258125	-1.465625
-213.134003	-91.012001	1086.898071	1.150625	-0.297500	-1.242500
-205.264999	-100.223000	1088.972046	0.918750	-0.735000	-1.286250
-214.537003	-97.844002	1083.421021	0.940625	-0.700000	-1.054375
-203.374008	-96.868004	1081.774048	0.266875	-0.643125	-1.382500
-212.829010	-101.138000	1090.130981	0.214375	-0.529375	-1.478750
-213.744003	-109.007004	1083.299072	0.612500	-0.721875	-1.421875
-207.826996	-97.356003	1086.104980	0.726250	-0.603750	-1.439375
-213.438995	-93.513000	1088.239990	0.538125	-0.551250	-1.456875
-208.803009	-98.697998	1082.201050	0.625625	-0.599375	-1.509375
-216.977005	-98.576004	1083.848022	0.371875	-0.625625	-1.413125
-213.195007	-100.405998	1083.482056	0.402500	-0.630000	-1.382500
-210.876999	-95.831001	1083.969971	0.634375	-0.665000	-1.470000
-211.792007	-97.599998	1083.604004	0.494375	-0.704375	-1.509375
-209.596008	-101.748001	1084.946045	0.376250	-0.695625	-1.474375
-205.387009	-99.369003	1084.946045	0.577500	-0.700000	-1.561875
-211.487000	-98.454002	1084.702026	0.533750	-0.743750	-1.570625
-216.061996	-99.795998	1085.677979	0.350000	-0.726250	-1.500625
-211.852997	-100.528000	1077.442993	0.643125	-0.516250	-1.491875
-211.792007	-97.539001	1086.104980	0.581875	-0.660625	-1.360625
-204.410995	-102.480003	1084.213989	0.450625	-0.682500	-1.356250
-214.415009	-102.846001	1085.921997	0.568750	-0.498750	-1.474375
-215.818008	-104.309998	1086.410034	0.538125	-0.634375	-1.417500
-210.999008	-102.113998	1083.725952	0.665000	-0.691250	-1.470000
-205.387009	-93.390999	1084.702026	0.616875	-0.800625	-1.518125
-206.057999	-100.467003	1083.359985	0.669375	-0.647500	-1.540000
-209.108002	-100.528000	1084.579956	0.590625	-0.669375	-1.465625
-208.742004	-107.542999	1089.886963	0.240625	-0.577500	-1.474375
-209.718002	-100.955002	1086.410034	0.455000	-0.682500	-1.439375
-209.108002	-95.221001	1085.312012	0.603750	-0.735000	-1.400000
-208.132004	-99.064003	1088.178955	0.612500	-0.656250	-1.452500
-207.766006	-104.188004	1086.654053	0.625625	-0.638750	-1.531250
-210.084000	-97.294998	1082.628052	0.700000	-0.704375	-1.478750
-209.108002	-96.136002	1086.471069	0.603750	-0.691250	-1.478750
-205.020996	-102.053001	1086.410034	0.752500	-0.761250	-1.500625
-210.206009	-99.917999	1083.969971	0.787500	-0.590625	-1.430625
-206.850998	-102.723999	1087.568970	0.630000	-0.616875	-1.439375
-210.816010	-94.611000	1089.093994	0.708750	-0.529375	-1.623125
-210.206009	-100.100998	1084.458008	0.616875	-0.503125	-1.535625
-208.742004	-95.586998	1086.044067	0.573125	-0.503125	-1.496250
-210.449997	-98.087997	1083.359985	0.695625	-0.406875	-1.448125
-205.753006	-99.674004	1085.190063	0.621250	-0.686875	-1.500625
-207.033997	-94.733002	1088.789062	0.835625	-0.595000	-1.548750
-212.035995	-95.038002	1084.823975	0.704375	-0.603750	-1.452500
-205.875000	-94.793999	1089.765015	0.721875	-0.586250	-1.531250
-209.352005	-105.712997	1086.776001	0.752500	-0.498750	-1.395625
-208.376007	-99.857002	1086.776001	0.774375	-0.529375	-1.417500
-208.619995	-92.537003	1086.654053	0.844375	-0.498750	-1.356250
-215.268997	-101.198997	1082.750000	0.975625	-0.411250	-1.439375
-208.193008	-94.245003	1090.984985	0.988750	-0.420000	-1.478750
-214.781006	-97.478004	1085.800049	1.211875	-0.459375	-1.465625
-209.169006	-94.733002	1087.141968	1.260000	-0.297500	-1.605625
-211.669998	-94.793999	1082.628052	1.596875	-0.157500	-1.470000
-209.229996	-99.795998	1088.666992	3.815000	0.625625	-1.155000
-208.986008	-92.415001	1090.436035	8.281875	2.406250	-2.108750
-216.244995	-86.558998	1088.849976	9.712500	2.778125	-1.159375
-214.048996	-79.848999	1084.579956	10.206875	3.185000	-0.118125
-219.660995	-74.847000	1086.044067	9.594375	3.430000	0.280000
-228.811005	-66.673004	1083.725952	10.123750	4.055625	1.054375
-226.492996	-54.290001	1080.797974	10.578750	4.055625	2.152500
-233.569000	-47.519001	1088.911011	10.132500	3.880625	2.655625
-233.996002	-38.612999	1081.347046	10.049375	4.182500	3.014375
-237.656006	-34.342999	1086.958984	10.403750	5.315625	4.650625
-236.680008	-29.829000	1089.338013	8.964375	5.131875	4.151875
-246.867004	-20.557001	1082.201050	8.850625	4.847500	2.187500
-247.050003	-14.701000	1073.905029	8.605625	3.806250	0.586250
-250.954010	-7.747000	1081.834961	10.521875	3.937500	-1.680000
-257.237000	-9.638000	1078.602051	16.314375	4.567500	-7.218750
-246.318008	7.320000	1084.275024	17.771250	4.589375	-10.080000
-273.341003	13.237000	1078.541016	13.995625	3.661875	-6.746250
-261.567993	24.034000	1080.737061	11.379375	2.861250	-4.917500
-267.606995	34.647999	1074.759033	11.379375	3.727500	-4.711875
-277.123016	37.149002	1072.989990	12.000625	3.727500	-4.711875
-277.123016	37.149002	1072.989990	11.116875	3.364375	-2.415000
-263.398010	42.028999	1077.565063	9.366875	2.878750	-1.155000
-272.243011	47.519001	1075.063965	8.653750	3.263750	-1.238125
-275.354004	53.618999	1078.906982	7.240625	2.590000	-1.649375
-279.989990	58.621002	1073.172974	5.569375	1.330000	-3.421250
-272.487000	56.119999	1082.322998	5.766250	0.756875	-4.825625
-279.196991	66.673004	1066.157959	6.601875	0.669375	-5.048750
-284.381989	69.723000	1072.807007	6.746250	0.433125	-5.180000
-276.878998	70.272003	1075.613037	6.212500	0.385000	-5.083750
-283.588989	75.579002	1068.902954	5.578125	0.398125	-4.532500
-283.162018	76.127998	1071.037964	2.940000	-0.533750	-2.909375
-280.050995	74.786003	1077.931030	1.815625	-0.647500	-1.920625
-280.722015	76.250000	1068.902954	1.942500	-0.682500	-2.056250
-275.781006	78.323997	1080.553955	2.786875	-0.529375	-2.900625
-289.140015	82.411003	1069.390991	4.738125	0.188125	-4.230625
-287.187988	85.034004	1072.685059	4.751250	-0.105000	-4.633125
-278.587006	82.716003	1075.247070	4.558750	-0.035000	-4.676875
-293.287994	87.413002	1070.916016	3.333750	-0.446250	-3.565625
-283.101013	92.537003	1072.258057	1.032500	-1.242500	-2.143750
-274.438995	89.669998	1071.891968	-0.415625	-1.806875	-1.653750
-277.306000	76.127998	1069.940063	-0.105000	-1.500625	-1.610000
-278.526001	88.084000	1077.198975	0.350000	-0.988750	-1.680000
-283.955017	86.132004	1073.722046	0.665000	-0.288750	-1.885625
-294.691010	95.831001	1062.925049	0.678125	-2.012500	-2.235625
-235.460007	85.339005	1087.691040	0.026250	-2.065000	-1.710625
-287.554016	87.230003	1075.369019	0.415625	-1.684375	-1.050000
-200.994995	55.144001	1071.037964	0.389375	-1.316875	-1.859375
-338.671997	81.008003	1057.251953	0.249375	0.148750	-1.968750
-224.785004	82.959999	1082.567017	0.638750	-0.599375	-1.509375
-294.446991	80.764000	1069.879028	0.581875	-1.050000	-1.583750
-284.931000	84.362999	1075.734985	0.446250	-0.350000	-1.509375
-280.539001	81.739998	1076.771973	0.520625	-0.608125	-1.461250
-281.820007	81.374001	1071.526001	0.542500	-0.691250	-1.365000
-279.868011	79.178001	1070.427979	0.568750	-0.603750	-1.408750
-279.989990	86.681000	1071.160034	0.625625	-0.568750	-1.500625
-271.511017	80.581001	1074.393066	0.603750	-0.708750	-1.400000
-285.723999	79.178001	1073.478027	0.577500	-0.809375	-1.461250
-280.050995	87.656998	1074.209961	0.608125	-0.564375	-1.496250
-278.648010	85.034004	1073.966064	0.538125	-0.551250	-1.557500
-275.292999	78.018997	1074.453979	0.581875	-0.634375	-1.505000
-279.746002	80.276001	1076.527954	0.656250	-0.700000	-1.522500
-278.891998	87.901001	1071.160034	0.586250	-0.630000	-1.487500
-280.843994	79.483002	1076.467041	0.529375	-0.608125	-1.448125
-280.112000	79.178001	1072.989990	0.560000	-0.669375	-1.404375
-282.795990	84.362999	1075.796021	0.616875	-0.691250	-1.439375
-276.878998	85.278000	1076.650024	0.673750	-0.638750	-1.408750
-281.820007	80.215004	1074.209961	0.560000	-0.651875	-1.487500
-275.658997	79.543999	1076.771973	0.638750	-0.599375	-1.531250
-282.125000	82.106003	1074.453979	0.616875	-0.573125	-1.470000
-280.722015	85.339005	1069.329956	0.485625	-0.651875	-1.400000
-272.609009	79.361000	1076.223022	0.590625	-0.590625	-1.461250
-277.794006	82.044998	1072.868042	0.665000	-0.612500	-1.448125
-282.552002	84.729004	1072.135986	0.669375	-0.590625	-1.338750
-276.024994	79.910004	1072.868042	0.603750	-0.507500	-1.334375
-275.110016	82.106003	1074.453979	0.529375	-0.568750	-1.474375
-277.428009	81.496002	1077.321045	0.568750	-0.630000	-1.500625
-276.940002	83.082001	1076.650024	0.586250	-0.735000	-1.596875
-278.891998	79.910004	1072.745972	0.599375	-0.599375	-1.439375
-276.024994	80.153999	1073.599976	0.533750	-0.586250	-1.553125
-277.306000	80.031998	1070.062012	0.568750	-0.564375	-1.505000
-280.843994	82.228004	1070.306030	0.647500	-0.599375	-1.540000
-282.063995	84.057999	1071.648071	0.603750	-0.503125	-1.439375
-282.429993	84.424004	1072.868042	0.595000	-0.608125	-1.343125
-280.234009	85.888000	1073.722046	0.533750	-0.498750	-1.369375
-275.903015	86.986000	1079.029053	0.621250	-0.651875	-1.518125
-280.843994	80.703003	1075.186035	0.538125	-0.651875	-1.478750
-279.380005	84.729004	1077.015991	0.555625	-0.616875	-1.461250
-276.878998	81.251999	1075.063965	0.634375	-0.612500	-1.456875
-280.112000	86.437004	1071.404053	0.673750	-0.608125	-1.426250
-277.610992	82.106003	1072.624023	0.608125	-0.713125	-1.478750
-283.345001	80.398003	1075.369019	0.573125	-0.686875	-1.518125
-274.072998	85.460999	1076.771973	0.686875	-0.625625	-1.509375
-275.842010	80.215004	1075.917969	0.616875	-0.560000	-1.452500
-282.613007	80.641998	1073.355957	0.586250	-0.638750	-1.395625
-278.221008	87.047005	1071.404053	0.656250	-0.643125	-1.443750
-278.526001	82.106003	1070.671997	0.573125	-0.525000	-1.448125
-281.942017	83.082001	1077.442993	0.564375	-0.673750	-1.430625
-279.441010	83.326004	1076.527954	0.608125	-0.682500	-1.522500
-278.160004	82.837997	1078.235962	0.682500	-0.704375	-1.588125
-276.940002	76.677002	1072.562988	0.638750	-0.669375	-1.443750
-281.697998	81.191002	1075.613037	0.665000	-0.542500	-1.435000
-280.234009	82.228004	1074.820068	0.621250	-0.577500	-1.496250
-276.269012	88.389000	1049.749023	0.100625	-0.144375	-1.636250
-273.950989	70.393997	1071.831055	0.966875	-1.277500	-1.045625
-254.186996	54.778000	1046.942993	0.980000	-0.638750	-1.426250
-292.494995	79.117004	1065.487061	2.305625	-0.245000	-1.238125
-277.550018	94.550003	1074.759033	2.572500	-0.332500	-1.076250
-285.296997	89.181999	1070.916016	1.325625	-1.483125	-1.295000
-278.709015	89.914001	1075.490967	0.420000	-1.220625	-1.579375
-283.162018	79.117004	1081.347046	0.118125	-1.575000	-1.347500
-275.415009	81.556999	1078.114014	0.358750	-0.993125	-1.321250
-277.671997	91.317001	1073.722046	0.555625	-1.386875	-1.312500
-269.192993	76.982002	1074.820068	1.255625	-1.255625	-0.774375
-271.084015	82.777000	1072.380005	1.986250	-2.165625	0.118125
-261.628998	89.487000	1063.169067	3.018750	-5.853750	3.290000
-264.618011	85.278000	1086.227051	1.439375	-4.965625	5.149375
-270.535004	83.204002	1073.051025	0.135625	-0.573125	-0.078750
-262.360992	88.876999	1080.126953	0.271250	1.010625	-1.684375
-279.257996	90.279999	1074.942017	0.455000	0.564375	-1.461250
-275.658997	104.066002	1070.427979	-0.861875	-0.533750	-1.640625
-267.729004	96.196999	1092.204956	-0.485625	-1.583750	-1.229375
-291.519012	77.104004	1062.985962	0.087500	-0.170625	-1.421875
-262.787994	103.700005	1073.355957	0.087500	0.682500	-1.176875
-271.877014	76.555000	1077.687012	1.736875	0.682500	-1.176875
-271.877014	76.555000	1077.687012	0.896875	-0.415625	-1.400000
-269.253998	90.158005	1071.831055	0.520625	-0.455000	-1.614375
-266.509003	88.084000	1078.785034	0.669375	-0.612500	-1.483125
-272.364990	91.012001	1071.587036	0.625625	-0.665000	-1.535625
-257.541992	118.706001	1063.656982	0.590625	-1.841875	-1.106875
-259.127991	59.719002	1082.078979	0.205625	0.424375	-1.470000
-276.817993	108.335999	1061.644043	1.128750	1.015000	-1.894375
-274.500000	92.232002	1077.504028	1.723750	0.336875	-1.443750
-235.764999	88.571999	1104.222046	2.139375	3.535000	-2.038750
-304.572998	100.894005	1049.505005	2.852500	4.720625	-1.540000
-279.441010	91.805000	1076.894043	-0.135625	6.864375	4.003125
-290.665009	93.208000	1065.974976	-5.162500	10.521875	11.353125
-292.556000	90.889999	1073.661011	-8.295000	12.477500	15.076250
-313.295990	88.694000	1058.228027	-7.818125	9.966250	13.418125
-299.631989	83.570000	1069.208008	-3.692500	5.897500	6.755000
-315.614014	84.912003	1059.143066	-1.789375	5.954375	4.427500
-317.566010	84.912003	1062.681030	-1.321250	8.500625	5.455625
-327.875000	85.643997	1058.228027	-2.318750	13.243125	6.816250
-338.733002	85.643997	1059.936035	-2.152500	16.327499	6.418125
-348.005005	79.605003	1055.666016	-0.214375	13.851250	3.434375
-355.569000	91.622002	1051.395996	1.960000	10.920000	0.853125
-359.899994	95.953003	1039.867065	2.795625	10.049375	-0.446250
-358.192017	89.487000	1046.577026	3.346875	11.445000	-0.691250
-384.726990	94.123001	1030.167969	4.427500	15.133125	-1.925000
-385.398010	98.392998	1029.436035	6.291250	17.552500	-4.921875
-394.852997	95.770004	1020.835022	8.544375	18.965626	-7.735000
-419.985016	107.116005	1010.830994	10.696875	22.728125	-9.905000
-427.670990	100.589005	1014.125000	12.897500	21.074375	-13.081250
-438.528992	107.787003	1004.853027	11.764375	18.746876	-12.131875
-457.865997	115.839005	998.752991	10.600625	14.975625	-10.775625
-473.238007	116.875999	1003.145020	9.358125	12.018125	-9.415000
-476.776001	125.355003	987.101990	6.860000	13.230000	-7.148750
-480.436005	121.877998	977.647034	5.376875	11.939375	-6.580000
-483.242004	122.000000	988.687988	4.869375	8.666875	-5.932500
-485.682007	126.209000	980.819031	3.451875	8.732500	-4.611250
-507.093018	126.758003	960.872009	1.846250	4.948125	-3.255000
-481.717010	119.011002	988.078003	1.085000	2.883125	-1.986250
-508.069000	127.673004	962.275024	0.223125	4.729375	-0.783125
-508.007996	121.572998	964.166016	-1.023750	3.075625	0.293125
-500.505005	120.292000	978.317993	-0.896875	1.303750	0.192500
-505.994995	128.404999	965.812988	0.148750	0.008750	-0.638750
-509.350006	121.817001	962.824036	0.188125	-2.625000	-1.019375
-509.838013	116.388000	978.074036	-0.083125	-2.633750	-1.540000
-513.010010	124.013000	973.316040	-0.463750	-3.924375	-1.378125
-481.046021	130.113007	988.566040	0.441875	-3.574375	-1.168125
-504.653015	96.746002	975.329041	0.918750	-2.296875	-1.540000
-464.636993	123.342003	979.843018	2.406250	-0.564375	-1.023750
-549.304993	117.058998	951.294983	-1.443750	-0.341250	-2.025625
-455.791992	115.900002	996.617981	-0.017500	-2.073750	-0.966875
-514.778992	114.924004	952.880981	0.875000	0.411250	-1.181250
-488.854004	134.871002	975.329041	0.284375	-1.058750	-1.426250
-493.856018	124.745003	971.851990	0.616875	-0.568750	-1.461250
-495.563995	126.941002	970.265991	0.350000	-0.665000	-1.531250
-496.906006	123.830002	974.963013	0.542500	-0.581875	-1.426250
-497.515991	124.683998	972.828003	0.525000	-0.656250	-1.496250
-490.989014	119.559998	972.950012	0.516250	-0.608125	-1.505000
-490.440002	122.915001	973.804016	0.612500	-0.682500	-1.386875
-496.722992	124.562004	970.632019	0.590625	-0.630000	-1.500625
-496.296021	121.267998	972.828003	0.503125	-0.581875	-1.496250
-498.003998	124.500999	973.804016	0.463750	-0.625625	-1.395625
-494.649017	125.903999	972.950012	0.551250	-0.573125	-1.474375
-496.174011	131.455002	975.145996	0.551250	-0.511875	-1.474375
-499.712006	123.890999	973.559998	0.564375	-0.533750	-1.439375
-498.735992	125.843002	971.242004	0.634375	-0.621250	-1.448125
-493.916992	125.538002	973.742981	0.573125	-0.638750	-1.430625
-498.126007	126.391998	969.656006	0.546875	-0.691250	-1.570625
-497.638000	122.732002	972.401001	0.533750	-0.721875	-1.640625
-493.916992	127.306999	971.729980	0.498750	-0.590625	-1.601250
-496.296021	125.660004	970.754028	0.599375	-0.586250	-1.579375
-491.233002	121.756004	974.109009	0.630000	-0.511875	-1.522500
-494.832001	125.843002	976.671021	0.612500	-0.511875	-1.417500
-494.954010	125.172005	971.486023	0.608125	-0.525000	-1.408750
-499.223999	126.636002	975.695007	0.581875	-0.608125	-1.500625
-494.039001	127.001999	972.462036	0.551250	-0.608125	-1.570625
-498.126007	123.098000	973.072021	0.573125	-0.595000	-1.500625
-496.540009	129.137009	971.119995	0.638750	-0.516250	-1.561875
-496.540009	124.683998	969.290039	0.691250	-0.621250	-1.553125
-498.248016	125.293999	971.913025	0.577500	-0.573125	-1.470000
-493.184998	124.928001	973.072021	0.568750	-0.551250	-1.505000
-491.537994	126.270004	970.510010	0.599375	-0.551250	-1.500625
-499.773010	123.708000	972.462036	0.498750	-0.586250	-1.483125
-503.494019	121.267998	972.950012	0.529375	-0.555625	-1.448125
-494.770996	128.160995	972.705994	0.568750	-0.603750	-1.544375
-497.149994	125.781998	973.316040	0.542500	-0.726250	-1.461250
-495.563995	123.585999	974.048035	0.612500	-0.686875	-1.316875
-492.819000	129.746994	974.780029	0.695625	-0.595000	-1.373750
-501.237000	125.538002	976.488037	0.638750	-0.616875	-1.461250
-500.200012	122.487999	974.048035	0.546875	-0.612500	-1.596875
-502.761993	125.721001	974.902039	0.529375	-0.525000	-1.500625
-498.553009	125.903999	972.950012	0.643125	-0.599375	-1.474375
-493.429016	125.293999	974.536011	0.647500	-0.595000	-1.601250
-496.174011	124.683998	973.072021	0.603750	-0.490000	-1.579375
-498.614014	124.318001	974.291992	0.564375	-0.511875	-1.483125
-499.712006	127.185005	974.414001	0.630000	-0.503125	-1.430625
-494.893005	122.487999	972.828003	0.634375	-0.542500	-1.461250
-497.149994	118.096001	975.939026	0.634375	-0.612500	-1.491875
-497.394012	123.525002	972.218018	0.564375	-0.612500	-1.491875
-497.394012	123.525002	976.304993	0.573125	-0.630000	-1.452500
-497.149994	125.416000	976.304993	0.560000	-0.542500	-1.544375
-497.149994	125.172005	975.877991	0.608125	-0.651875	-1.487500
-492.209015	122.732002	969.960999	0.616875	-0.573125	-1.470000
-496.417999	125.355003	972.645020	0.551250	-0.590625	-1.408750
-495.442017	122.732002	973.194031	0.581875	-0.621250	-1.513750
-494.709991	129.380997	972.705994	0.660625	-0.612500	-1.452500
-497.882019	125.903999	972.705994	0.660625	-0.616875	-1.526875
-498.858002	122.487999	973.316040	0.573125	-0.625625	-1.526875
-496.113007	125.965004	971.119995	0.560000	-0.621250	-1.483125
-496.417999	120.231003	973.377014	0.568750	-0.577500	-1.448125
-496.174011	126.696999	974.658020	0.621250	-0.564375	-1.452500
-490.744995	124.318001	975.268005	0.691250	-0.603750	-1.456875
-499.285004	128.039001	974.048035	0.590625	-0.599375	-1.618750
-502.884003	125.903999	977.281006	0.660625	-0.612500	-1.553125
-497.455017	121.267998	971.181030	0.634375	-0.586250	-1.540000
-499.712006	123.098000	975.085022	0.538125	-0.581875	-1.553125
-493.916992	120.048004	973.804016	0.590625	-0.590625	-1.470000
-503.921021	127.063004	974.169983	0.643125	-0.507500	-1.386875
-487.024017	122.122002	972.705994	0.608125	-0.603750	-1.373750
-493.673004	122.854004	972.705994	0.686875	-0.463750	-1.421875
-494.832001	127.063004	971.364014	0.603750	-0.525000	-1.518125
-481.899994	145.850998	1014.918030	0.078750	-2.314375	-0.665000
-486.291992	117.547005	1005.341003	0.616875	-0.529375	-1.246875
-510.386993	122.549004	962.397034	0.993125	0.901250	-1.378125
-492.941010	128.893005	974.414001	0.446250	-0.809375	-1.365000
-493.856018	127.001999	970.876038	0.673750	-0.503125	-1.351875
-500.139008	119.376999	964.104980	0.218750	-1.111250	-1.400000
-487.877991	118.584000	982.648987	0.411250	-0.940625	-1.452500
-505.080017	132.979996	969.473022	0.481250	0.065625	-2.568125
-519.354004	135.419998	965.874023	0.586250	-1.592500	-1.356250
-498.431000	103.090004	986.919006	-0.091875	-0.560000	-1.793750
-492.819000	133.712006	970.388000	0.831250	-0.770000	-1.325625
-495.808014	134.565994	969.290039	0.700000	-0.476875	-1.526875
-490.867004	133.223999	982.221985	0.192500	0.153125	-2.156875
-504.347992	97.356003	953.979004	0.083125	-0.188125	-2.100000
-483.058990	133.772995	981.002014	0.433125	0.091875	-2.935625
-520.390991	75.822998	961.848022	1.693125	-0.433125	-7.936250
-485.621002	110.471001	985.577026	3.823750	-3.731875	-9.585625
-492.696991	127.612000	972.645020	5.560625	-4.213125	-12.096875
-488.061005	132.431000	974.902039	6.199375	-2.979375	-17.946251
-459.085999	72.101997	979.355042	6.991250	-2.983750	-22.504999
-505.446014	106.811005	973.132996	5.000625	-5.810000	-19.061874
-484.157013	101.992004	982.527039	1.491875	-6.326250	-14.673750
-490.135010	103.700005	984.661987	0.301875	-5.250000	-11.213125
-480.863007	101.503998	992.043030	-0.669375	-5.932500	-10.276875
-492.819000	94.123001	976.976013	-0.931875	-7.008750	-11.335625
-481.167999	95.526001	986.796997	-1.548750	-8.194375	-11.274375
-465.674011	76.494003	986.126038	-2.025625	-11.838750	-10.828125
-464.088013	80.825005	1001.742004	-1.995000	-12.131875	-9.677500
-463.966003	69.479004	994.483032	-2.253125	-7.175000	-6.536250
-461.830994	71.675003	997.166992	-1.159375	-4.571875	-3.583125
-446.641998	84.180000	1004.121033	-0.262500	-2.423750	-1.758750
-467.015991	68.807999	998.936035	-0.179375	-0.301875	-1.430625
-459.269012	86.132004	994.788025	-0.074375	0.258125	-1.312500
-452.071014	70.882004	1000.095032	0.227500	0.074375	-1.176875
-458.781006	71.492004	995.764038	0.358750	-0.109375	-1.408750
-462.136017	72.956001	993.324036	0.437500	-0.717500	-1.461250
-454.145020	75.822998	1000.705017	0.761250	-1.010625	-1.308125
-457.134003	73.809998	999.057983	0.490000	-0.354375	-1.513750
-461.160004	66.429001	996.862000	0.476875	-0.546875	-1.548750
-449.326019	80.276001	1002.169006	0.748125	-0.883750	-1.456875
-459.024994	71.431000	996.434998	0.420000	-1.050000	-1.487500
-453.778992	68.685997	1002.046997	0.494375	-1.330000	-1.295000
-461.464996	70.943001	997.716003	0.581875	-1.754375	-1.281875
-458.658997	77.775002	998.692017	-0.599375	-3.473750	-0.446250
-436.576996	62.952000	1005.707031	-1.176875	-9.384375	2.231250
-436.028015	78.323997	1006.988037	-1.850625	-15.439375	0.800625
-431.819000	72.163002	1010.587036	-1.968750	-17.416876	-2.401875
-426.329010	67.099998	1012.721985	-1.343125	-14.980000	-1.225000
-417.423004	61.792999	1019.005005	-1.553125	-12.683125	-1.925000
-404.063995	65.086998	1024.739014	-1.373750	-14.730625	-5.315625
-396.927002	66.856003	1025.287964	-1.636250	-13.934375	-4.764375
-388.143005	61.183002	1034.620972	-1.920625	-12.643750	-2.511250
-377.346008	52.643002	1033.462036	-1.859375	-11.462500	-1.448125
-376.492004	58.865002	1039.013062	-1.736875	-11.103750	-0.931875
-374.906006	60.146000	1045.479004	-1.465625	-10.718750	-1.601250
-368.013000	54.229000	1045.906006	-1.260000	-10.745000	-2.021250
-349.774017	59.597000	1045.417969	-1.649375	-9.515625	-1.395625
-351.847992	48.373001	1047.369995	-1.614375	-9.660000	-1.216250
-339.891998	49.897999	1051.945068	-1.050000	-8.518125	-0.892500
-333.364990	53.008999	1054.629028	-0.665000	-5.140625	-0.726250
-344.222992	47.702000	1055.421997	0.074375	-2.257500	-1.260000
-341.782990	49.776001	1055.177979	0.896875	-1.015000	-1.522500
-341.966003	48.068001	1055.056030	0.568750	-0.910000	-1.404375
-333.852997	47.091999	1053.469971	0.179375	-0.218750	-1.330000
-358.131012	52.033001	1049.566040	0.826875	0.109375	-1.190000
-330.619995	48.799999	1060.424072	1.019375	1.194375	-1.579375
-396.011993	64.050003	1009.428040	0.363125	0.866250	-1.894375
-278.709015	49.043999	1073.722046	1.137500	-0.511875	-1.316875
-371.123993	46.726002	1038.586060	0.385000	-0.945000	-1.649375
-327.325989	54.961002	1064.023071	0.625625	-0.568750	-1.421875
-344.528015	48.250999	1057.557007	0.634375	-0.822500	-1.378125
-339.709015	52.887001	1049.870972	0.577500	-0.284375	-1.526875
-335.683014	49.776001	1061.156006	0.752500	-0.249375	-1.483125
-338.062012	55.083000	1053.286987	0.665000	-0.511875	-1.456875
-346.662994	65.391998	1052.128052	0.297500	-0.721875	-1.505000
-355.934998	52.764999	1051.395996	0.498750	-1.225000	-1.295000
-302.498993	62.037003	1063.108032	1.203125	-0.595000	-1.299375
-354.593018	51.545002	1049.749023	1.001875	0.122500	-1.505000
-353.067993	60.817001	1042.672974	-0.008750	0.170625	-2.121875
-332.511017	44.774002	1057.495972	0.778750	-0.853125	-1.535625
-351.726013	47.336002	1052.555054	0.778750	-0.853125	-1.583750
-351.726013	60.878002	1053.104004	0.319375	-0.695625	-1.583750
-332.266998	60.878002	1053.104004	0.551250	-0.726250	-1.575000
-346.968018	64.233002	1046.698975	0.140000	-1.605625	-1.605625
-340.563019	30.743999	1056.093018	-0.345625	-0.997500	-1.754375
-336.903015	41.723999	1061.217041	0.529375	-1.120000	-1.798125
-350.261993	51.423000	1048.529053	1.316875	-0.525000	-1.509375
-336.597992	57.278999	1058.593994	0.577500	-0.490000	-1.684375
-367.463989	29.829000	1034.010986	-0.140000	-1.338750	-1.505000
-359.472992	56.364002	1054.994995	0.258125	-0.166250	-1.421875
-351.054993	41.114002	1098.488037	1.561875	-2.598750	-0.625625
-330.558990	70.515999	1059.265015	0.651875	-2.016875	-0.761250
-310.062988	53.313999	1047.919067	-1.942500	-12.823125	7.354375
-327.570007	31.659000	1038.036987	-4.191250	-18.685625	9.953125
-311.588013	53.618999	1064.937988	-4.221875	-17.390625	7.205625
-290.908997	50.142002	1071.464966	-4.431875	-14.665000	5.928125
-294.630005	49.043999	1079.273071	-4.633125	-14.210000	4.781875
-271.755005	39.589001	1075.430054	-3.368750	-14.695625	3.679375
-273.279999	42.151001	1081.957031	-1.058750	-11.081875	2.782500
-265.411011	52.033001	1073.051025	1.010625	-5.705000	0.665000
-256.871002	18.056000	1083.969971	2.152500	-0.993125	-1.793750
-267.240997	39.101002	1078.296997	2.555000	-1.264375	-3.801875
-255.468002	51.484001	1074.209961	7.813750	-5.473125	-11.668125
-273.524017	55.570999	1074.942017	8.146250	-6.881875	-11.305000
-248.087006	30.439001	1086.776001	6.737500	-7.682500	-7.446250
-240.156998	64.355003	1083.725952	10.609375	-13.160000	-5.967500
-239.363998	81.374001	1086.166016	13.055000	-18.751249	-2.747500
-221.917999	71.796997	1086.531982	11.576250	-19.674376	1.933750
-216.977005	71.492004	1089.399048	8.596875	-17.648750	4.563125
-201.910004	88.206001	1095.376953	4.851875	-14.879375	5.298125
-178.181000	92.170998	1094.096069	2.445625	-13.628125	5.744375
-182.755997	78.568001	1099.525024	1.176875	-15.859375	6.352500
-158.050995	86.925003	1098.732056	0.752500	-19.101250	6.295625
-156.281998	97.234001	1104.770996	-0.118125	-21.017500	6.619375
-145.302002	97.844002	1099.463989	0.183750	-21.455000	4.716250
-133.712006	94.062004	1107.088989	-0.017500	-20.588751	4.252500
-101.748001	85.095001	1112.578979	-1.605625	-18.475624	3.465000
-106.139999	96.868004	1110.078003	-2.283750	-18.125626	2.178750
-81.069000	84.180000	1115.019043	-4.742500	-19.893126	2.235625
-74.114998	74.359001	1117.154053	-7.962500	-24.836876	2.979375
-46.604000	71.613998	1120.753052	-9.480625	-26.928125	3.867500
-42.028999	69.174004	1121.790039	-9.655625	-27.689375	3.653125
-6.893000	57.767002	1124.535034	-6.995625	-23.642500	2.957500
-5.124000	52.826000	1122.644043	-5.945625	-20.199375	4.418750
3.965000	56.669003	1121.790039	-4.882500	-17.758125	4.576250
26.047001	45.688999	1124.229980	-3.115000	-14.205625	3.941875
25.498001	55.937000	1124.962036	-2.905000	-10.368750	3.198125
32.390999	48.007000	1114.409058	-2.935625	-10.141250	3.049375
39.466999	54.961002	1120.020996	-1.986250	-9.769375	2.712500
50.751999	40.625999	1117.885986	-2.506875	-11.650625	3.788750
48.799999	31.659000	1124.656982	-2.380000	-13.501250	4.025000
66.246002	35.806999	1121.790039	-0.306250	-12.652500	2.410625
70.210999	35.990002	1122.765991	-0.091875	-13.050625	3.556875
89.121002	26.779001	1123.864014	-1.111250	-11.401250	3.250625
85.155998	36.173000	1124.352051	-0.949375	-11.812500	3.080000
106.811005	27.755001	1120.936035	-0.415625	-10.696875	2.681875
103.578003	29.646000	1119.716064	0.253750	-8.701875	1.688750
109.861000	30.988001	1116.300049	0.621250	-5.096875	0.157500
103.395004	26.474001	1116.421997	0.577500	-1.828750	-0.861875
116.632004	33.489002	1118.251953	0.984375	0.275625	-1.553125
101.992004	30.866001	1118.008057	0.656250	0.490000	-1.728125
107.787003	21.899000	1118.495972	0.665000	0.603750	-1.715000
92.354004	26.413000	1125.266968	0.805000	0.293125	-1.386875
125.172005	25.864000	1112.578979	0.861875	-0.883750	-1.351875
93.208000	34.709000	1110.810059	0.083125	0.980000	-1.391250
96.929001	35.380001	1112.151978	0.656250	-0.091875	-1.470000
105.469002	24.705000	1117.703003	0.783125	-0.568750	-1.719375
107.360001	31.537001	1121.729004	0.752500	-0.380625	-1.570625
104.554001	32.085999	1117.641968	0.385000	-0.735000	-1.426250
98.027000	43.066002	1121.240967	0.175000	-0.380625	-1.461250
110.166000	20.801001	1116.666016	0.297500	-0.748125	-1.583750
104.126999	28.121000	1120.020996	0.691250	-0.437500	-1.601250
106.567001	28.059999	1113.555054	0.551250	-0.476875	-1.417500
92.354004	32.146999	1106.723022	-0.065625	-1.251250	-1.430625
98.637001	69.357002	1155.401001	-0.096250	-1.023750	-1.378125
109.190002	31.293001	1118.435059	-0.144375	-1.417500	-1.470000
110.166000	41.297001	1118.618042	-1.071875	-1.203125	-1.421875
114.862999	2.623000	1101.416016	-3.110625	-1.820000	-2.288125
107.665001	34.282001	1126.487061	-14.599375	-6.383125	-6.558125
125.416000	0.854000	1118.678955	-21.844376	-8.421875	-9.502500
95.281998	-62.341999	1116.177979	-22.986250	-7.888125	-13.033125
139.811996	-26.413000	1124.901001	-14.511875	-6.072500	-9.362500
123.464005	-35.196999	1109.589966	-6.304375	-3.902500	-4.716250
129.380997	-25.681000	1112.213013	-3.723125	-5.044375	-2.905000
137.067001	-34.221001	1113.250000	-2.445625	-4.331250	-1.443750
142.800995	-43.737000	1112.395996	-4.042500	-6.715625	-1.894375
145.363007	-40.443001	1106.723022	-5.140625	-9.848125	-2.918125
149.755005	-41.114002	1112.822998	-3.613750	-8.583750	-2.126250
163.602005	-54.107002	1106.234985	-5.031250	-10.591875	-2.555000
166.347000	-52.582001	1108.492065	-5.346250	-14.135625	-3.084375
177.998001	-49.471001	1107.150024	-5.210625	-16.314375	-2.940000
188.246002	-58.987000	1096.718994	-5.670000	-18.313749	-2.935625
196.725006	-66.551003	1101.233032	-6.076875	-17.062500	-2.594375
214.475998	-70.515999	1096.414062	-5.381250	-14.634375	-2.423750
220.880997	-70.638000	1097.634033	-4.742500	-13.820625	-2.375625
227.225006	-88.328003	1091.473022	-6.243125	-15.955625	-2.117500
233.569000	-77.958000	1085.373047	-6.243125	-15.955625	-2.117500
233.569000	-77.958000	1079.943970	-7.192500	-20.921249	-2.738750
262.666016	-91.072998	1079.943970	-6.746250	-21.463751	-1.995000
263.641998	-87.778999	1086.348999	-6.046250	-20.260626	-1.588125
285.053009	-97.661003	1082.384033	-5.149375	-16.953125	-1.260000
285.480011	-100.528000	1080.553955	-5.053125	-13.251875	-0.455000
290.908997	-109.617004	1086.714966	-4.370625	-9.988125	-0.468125
301.950012	-106.811005	1069.817993	-3.066875	-8.763125	-0.651875
311.282990	-105.896004	1079.029053	-1.513750	-5.906250	-1.080625
309.269989	-115.229004	1071.587036	0.551250	-1.054375	-1.518125
313.479004	-92.170998	1078.175049	0.888125	0.826875	-1.618750
300.181000	-106.872002	1064.937988	1.063125	0.070000	-1.443750
338.123016	-77.714005	1059.570068	0.883750	1.155000	-1.802500
256.078003	-144.936005	1063.291016	2.296875	0.245000	-1.146250
325.800995	-96.624001	1067.561035	0.752500	-0.411250	-1.137500
290.604004	-107.055000	1079.822021	0.538125	-0.608125	-1.535625
294.203003	-111.386002	1077.260010	0.284375	-0.188125	-1.290625
309.757996	-111.996002	1070.000977	0.275625	-0.713125	-1.295000
300.181000	-100.405998	1071.281982	0.599375	-0.708750	-1.395625
294.569000	-109.861000	1079.639038	1.063125	-0.756875	-2.034375
299.692993	-106.932999	1069.756958	0.682500	-0.166250	-1.592500
303.475006	-104.249001	1070.183960	0.656250	-0.494375	-1.513750
301.096008	-111.813004	1072.501953	0.695625	-0.450625	-1.487500
303.475006	-109.250999	1083.238037	0.332500	-0.341250	-1.426250
304.024017	-103.151001	1073.539062	-0.253750	-0.905625	-1.408750
291.397003	-104.188004	1099.098022	0.634375	-0.148750	-1.579375
306.463989	-104.066002	1068.963989	1.063125	-0.376250	-1.610000
300.181000	-113.521004	1073.416992	0.765625	-0.402500	-1.347500
298.899994	-115.778000	1071.160034	0.669375	-0.879375	-1.321250
301.096008	-93.757004	1060.607056	-0.043750	-1.137500	-1.150625
307.135010	-124.440002	1066.828979	-1.246875	-0.293125	-0.918750
299.449005	-111.264000	1071.098999	0.406875	-0.866250	-1.483125
303.963013	-93.940002	1077.808960	-1.146250	-1.089375	-1.019375
299.631989	-121.207001	1067.927002	-2.161250	-1.995000	-0.818125
300.973999	-107.970001	1070.489014	-2.646875	-6.002500	0.638750
308.233002	-129.746994	1075.490967	-4.655000	-9.909375	2.340625
317.627014	-138.897003	1056.520020	-4.624375	-14.525000	2.953125
335.865997	-115.717003	1061.827026	-2.734375	-12.236875	2.073750
341.904999	-124.378998	1050.237061	-2.086875	-9.117500	1.146250
330.192993	-127.489998	1060.119019	-0.577500	-4.125625	0.026250
337.757019	-126.758003	1054.690063	-0.476875	-2.362500	-0.721875
339.160004	-139.507004	1046.698975	-1.487500	-4.200000	-0.315000
334.524017	-127.001999	1063.839966	-0.927500	-3.906875	-0.363125
341.295013	-140.117004	1044.930054	-0.949375	-4.029375	-0.437500
346.907013	-134.016998	1054.385010	-0.721875	-3.154375	-0.498750
342.454010	-136.762009	1054.933960	-0.538125	-1.837500	-0.546875
348.981018	-146.826996	1051.640015	-1.190000	-4.554375	-0.376250
353.128998	-136.945007	1050.664062	-1.505000	-4.488750	-0.406875
349.286011	-145.119003	1051.274048	-1.776250	-3.871875	-0.516250
359.656006	-143.227997	1054.629028	-0.525000	-2.196250	-0.888125
358.802002	-147.253998	1051.030029	1.032500	-0.468125	-1.662500
357.093994	-144.570007	1049.932007	1.421875	0.310625	-1.763125
351.481995	-136.212997	1054.019043	2.191875	0.301875	-1.995000
350.384003	-134.688004	1049.199951	1.623125	0.262500	-1.828750
342.149017	-145.240997	1048.102051	0.888125	-0.227500	-1.452500
348.127014	-138.408997	1052.799072	0.441875	-0.568750	-1.430625
352.763000	-143.227997	1042.062988	1.163750	-0.135625	-1.579375
354.044006	-136.091003	1057.984009	0.879375	-0.564375	-1.623125
347.394989	-135.908005	1061.217041	0.721875	-0.450625	-1.540000
359.290009	-132.065002	1044.807983	0.700000	-0.529375	-1.470000
380.701019	-149.206009	1006.195007	1.719375	-0.459375	-1.640625
310.184998	-162.076996	1077.565063	1.631875	-0.691250	-1.614375
352.335999	-150.182007	1052.311035	1.421875	-0.293125	-1.767500
356.300995	-144.630997	1062.375977	0.262500	-0.813750	-1.133125
335.988007	-147.253998	1064.083984	0.616875	-0.796250	-1.133125
345.199005	-117.242004	1053.531006	0.721875	-0.901250	-1.321250
368.135010	-145.119003	1041.941040	0.021875	-1.133125	-1.491875
354.044006	-159.332001	1049.749023	1.820000	-0.402500	-1.631875
342.027008	-121.939003	1054.750977	2.716875	-0.297500	-1.942500
359.412018	-127.063004	1050.907959	1.006250	-0.595000	-1.505000
351.542999	-138.287003	1057.191040	0.704375	-0.393750	-1.491875
345.565002	-150.242996	1039.806030	-0.188125	-0.695625	-1.211875
346.114014	-139.445999	1055.910034	0.218750	-0.805000	-1.491875
353.860992	-136.335007	1051.640015	1.850625	-0.888125	-1.631875
338.794006	-125.965004	1058.411011	-0.214375	-1.295000	-1.203125
355.507996	-150.365005	1034.010986	-0.927500	-0.253750	-2.008125
344.345001	-141.459000	1057.191040	2.804375	0.984375	-2.975000
341.356018	-106.445000	1056.520020	6.313125	3.920000	-2.695000
348.127014	-140.421997	1049.749023	7.144375	5.005000	-2.738750
353.251007	-131.820999	1062.131958	8.666875	5.250000	-0.870625
324.459015	-102.846001	1058.838013	9.025625	7.476875	0.091875
333.243011	-117.852005	1066.341064	7.013125	7.787500	-1.036875
322.385010	-105.774002	1067.865967	7.783125	6.890625	-1.251250
319.761993	-105.896004	1060.240967	9.541875	8.841875	-0.026250
320.006012	-97.294998	1062.925049	11.545625	10.381875	0.288750
305.854004	-79.910004	1072.441040	15.233750	13.479375	0.695625
297.131012	-71.553001	1076.344971	17.084375	16.515625	2.743125
287.127014	-73.200005	1076.161987	11.585000	12.906250	1.575000
265.289001	-66.794998	1081.347046	8.303750	10.185000	0.280000
267.485016	-57.767002	1079.699951	8.023750	8.754375	-0.511875
266.447998	-52.764999	1087.691040	8.671250	8.916250	-0.459375
249.490005	-41.236000	1090.740967	12.757500	14.420000	1.544375
240.401001	-43.675999	1096.353027	15.015000	18.410000	3.145625
225.456009	-29.402000	1092.144043	15.015000	18.410000	3.145625
225.456009	-29.402000	1100.135010	15.273125	19.639376	4.480000
214.415009	-19.398001	1100.135010	14.765625	20.330626	5.464375
207.949005	-11.041000	1110.626953	11.038125	15.535625	3.666250
179.279007	-4.087000	1102.818970	9.568125	15.168125	3.093125
174.154999	1.769000	1111.603027	9.275000	14.949375	2.961875
174.826004	8.235000	1113.921021	7.266875	12.425000	1.115625
158.234009	3.416000	1111.176025	6.969375	11.445000	-0.459375
155.306000	11.407001	1114.896973	6.265000	10.705625	-1.439375
144.020996	15.067000	1115.323975	4.838750	10.342500	-2.065000
136.212997	19.337000	1111.297974	5.241250	11.331250	-2.314375
127.306999	19.032000	1118.678955	5.950000	14.638750	-2.690625
110.166000	22.387001	1116.787964	6.479375	22.163750	-2.778125
96.014000	37.088001	1115.812012	5.884375	28.914375	-4.313750
79.178001	25.802999	1121.973022	6.260625	31.333750	-7.761250
45.262001	50.813000	1122.034058	7.507500	32.274376	-10.097500
39.223000	43.493000	1118.739990	7.109375	31.740625	-12.201875
-1.403000	47.031002	1119.105957	7.367500	24.758125	-13.523125
-12.261000	59.170002	1120.813965	7.765625	16.935625	-9.791250
-12.078000	53.741001	1121.546021	6.256250	13.396250	-7.910000
-24.827000	64.538002	1120.326050	6.326250	12.026875	-7.166250
-36.660999	69.845001	1118.862061	7.332500	13.291250	-5.215000
-47.275002	81.496002	1112.945068	7.927500	15.973125	-3.023125
-56.669003	74.724998	1114.104004	8.001875	17.438749	-2.454375
-68.381004	78.995003	1115.079956	7.870625	17.001249	-1.535625
-84.180000	86.193001	1109.041016	8.211875	16.051874	0.643125
-96.989998	101.503998	1112.701050	8.487500	16.401875	1.806875
-106.567001	98.942001	1115.750977	8.150625	12.958750	1.780625
-107.360001	98.454002	1108.431030	7.984375	9.782500	2.576875
-126.391998	118.035004	1103.124023	7.975625	8.395625	4.563125
-119.621002	121.451004	1107.211060	5.875625	4.891250	4.488750
-114.862999	121.024002	1105.197998	3.736250	3.093125	3.587500
-138.653000	122.732002	1102.026001	1.093750	0.551250	1.233750
-116.205002	120.048004	1109.773071	0.280000	-0.634375	0.682500
-112.911003	135.054001	1136.063965	-0.433125	0.367500	0.660625
-121.817001	122.549004	1097.938965	-0.223125	-0.590625	-0.840000
-125.293999	124.806000	1094.828003	1.251250	-0.485625	-1.544375
-133.406998	119.316002	1100.500977	0.813750	-0.280000	-1.715000
-135.542007	113.764999	1106.600952	0.271250	-0.542500	-1.785000
-114.862999	105.957001	1116.239014	0.201250	-0.660625	-1.684375
-130.662003	124.135002	1106.723022	0.275625	-0.752500	-1.518125
-121.939003	127.794998	1107.271973	0.564375	-0.608125	-1.386875
-119.559998	124.195999	1099.525024	0.581875	-0.665000	-1.540000
-103.334000	48.799999	1087.081055	2.213750	-0.507500	-1.281875
-93.513000	71.065002	1128.988037	0.892500	-1.146250	-1.833125
-133.285004	137.067001	1102.087036	3.364375	0.253750	-1.859375
-115.655998	131.576996	1107.821045	4.326875	1.505000	0.546875
-137.555008	100.772003	1115.019043	3.972500	0.883750	0.428750
-136.639999	155.488998	1102.026001	12.263125	4.755625	7.218750
-129.746994	140.910004	1107.454956	14.096250	9.095625	13.811875
-150.121002	173.362000	1102.026001	14.831250	11.585000	13.860000
-142.434998	163.785004	1100.440063	16.493750	14.892500	14.533750
-156.647995	182.207001	1089.643066	16.174376	13.663125	10.425625
-162.809006	197.274002	1091.046021	14.341250	11.685625	7.166250
-171.227005	203.923004	1087.141968	10.395000	9.323125	4.331250
-182.328995	205.203995	1083.725952	7.765625	5.521250	0.109375
-175.863007	206.912003	1090.009033	5.525625	4.283125	-0.245000
-188.550995	211.731003	1082.322998	5.722500	3.683750	-0.787500
-181.231003	225.578003	1081.895996	5.783750	4.471250	-0.704375
-193.431000	218.074997	1081.651978	3.893750	3.850000	0.301875
-188.429001	221.125000	1082.505981	4.383750	3.150000	-0.573125
-194.772995	233.386002	1071.343018	5.801250	4.554375	0.048125
-200.751007	229.848007	1079.883057	5.503750	4.733750	0.546875
-204.960007	233.569000	1074.026978	6.829375	5.565000	0.988750
-213.927002	240.401001	1071.891968	8.019375	6.720000	2.677500
-200.201996	257.907990	1068.963989	8.973125	6.838125	2.226875
-211.487000	248.331009	1066.280029	6.063750	4.781875	0.288750
-214.720001	258.884003	1066.401978	5.635000	3.766875	-1.273125
-214.720001	262.117004	1060.119019	4.895625	4.466875	-0.761250
-220.759003	261.201996	1062.558960	5.035625	4.169375	-1.268750
-225.882996	269.924988	1055.971069	4.939375	3.434375	-1.828750
-224.968002	258.579010	1060.484985	4.886875	2.835000	-2.331875
-226.798004	276.208008	1055.117065	4.961250	3.666250	-1.106875
-230.335999	267.606995	1058.655029	4.497500	3.591875	-0.433125
-240.035004	275.170990	1060.790039	5.678750	4.287500	0.717500
-240.096008	284.808990	1054.750977	4.296250	6.632500	3.657500
-241.804001	284.869995	1044.625000	3.823750	6.356875	3.696875
-241.072006	282.186005	1056.764038	3.377500	5.040000	2.555000
-247.354996	284.015991	1050.359009	1.763125	2.874375	1.036875
-249.001999	288.713013	1053.286987	0.743750	1.089375	0.385000
-241.621002	288.286011	1047.065063	0.175000	0.288750	-0.013125
-252.845001	288.895996	1048.468018	-0.835625	-0.914375	-0.564375
-246.988998	277.976990	1055.483032	-1.080625	-2.152500	-1.176875
-243.085007	290.481995	1051.640015	-0.494375	-2.397500	-0.774375
-243.024002	277.428009	1057.557007	0.179375	-0.358750	-1.334375
-245.098007	294.019989	1029.497070	3.386250	2.349375	-3.005625
-274.256012	300.058990	1042.978027	-2.463125	-4.978750	-0.485625
-184.585999	273.950989	1049.016968	1.216250	-1.741250	-0.914375
-273.463013	280.539001	1053.409058	0.004375	-1.365000	-1.736875
-241.804001	298.351013	1044.990967	0.393750	-0.371875	-1.561875
-230.214005	283.894012	1041.880005	0.551250	-1.001875	-1.404375
-240.279007	263.519989	1048.285034	0.078750	-0.918750	-1.697500
-262.117004	288.834991	1042.795044	1.198750	-0.039375	-1.426250
-232.897995	300.119995	1045.479004	1.198750	-0.039375	-1.360625
-232.897995	281.454010	1051.822998	0.507500	-0.406875	-1.360625
-249.856003	281.454010	1051.822998	1.032500	-0.336875	-1.356250
-248.636002	293.898010	1049.443970	1.023750	-0.166250	-1.868125
-251.686005	269.558990	1059.143066	1.032500	-0.315000	-2.550625
-241.376999	286.700012	1048.773071	5.149375	-0.621250	-7.192500
-250.770996	300.242004	1048.712036	4.768750	-0.113750	-6.059375
-241.621002	279.684998	1052.799072	3.854375	0.048125	-5.022500
-254.736008	287.127014	1051.274048	4.978750	0.927500	-4.348750
-246.745010	301.462006	1047.369995	4.760000	1.903125	-1.491875
-248.026001	295.300995	1051.213013	5.600000	3.631250	0.555625
-249.612000	304.450989	1046.881958	7.056875	7.818125	3.504375
-269.864014	307.256989	1041.574951	6.995625	8.701875	3.198125
-271.694000	313.235016	1031.204956	7.056875	5.425000	0.039375
-260.835999	314.881989	1034.987061	3.473750	0.936250	-2.152500
-263.398010	309.819000	1040.477051	3.955000	-0.940625	-3.224375
-257.847015	328.851013	1031.083008	5.066250	0.568750	-2.073750
-269.071014	321.165009	1037.305054	6.877500	1.846250	-3.421250
-270.839996	336.110016	1027.666992	10.670625	3.539375	-4.523750
-288.774017	328.240997	1021.567017	12.810000	4.405625	-4.900000
-284.687012	343.308014	1020.895996	13.488125	2.611875	-5.573750
-280.661011	350.567017	1016.382019	10.521875	2.695000	-2.401875
-291.153015	355.446991	1016.015991	8.758750	3.141250	0.323750
-273.768005	368.317993	1008.390991	5.512500	2.423750	0.616875
-291.092010	360.937012	1010.281982	2.585625	0.993125	0.070000
-294.630005	365.451019	1005.280029	0.140000	-1.303750	0.586250
-268.033997	364.902008	1020.408020	-2.576875	-2.795625	-0.415625
-283.406006	346.114014	1019.554016	-1.063125	-1.268750	-0.927500
-266.692017	355.691010	1018.700012	0.153125	0.516250	-1.758750
-321.287018	348.614990	1005.585022	0.923125	-2.870000	-0.975625
-258.761993	364.291992	1018.700012	0.529375	-0.577500	-1.579375
-296.399017	358.985016	1005.707031	0.393750	-0.774375	-1.378125
-281.332001	354.410004	1018.822021	0.424375	-0.371875	-1.513750
-285.601990	359.595001	1016.869995	0.638750	-0.770000	-1.470000
-276.513000	358.679993	1015.772034	0.625625	-0.686875	-1.540000
-284.076996	356.118011	1012.966003	0.656250	-0.735000	-1.658125
-284.748016	357.704010	1017.174988	0.634375	-0.542500	-1.605625
-286.455994	359.656006	1012.843994	0.643125	-0.665000	-1.601250
-281.149017	361.119995	1008.817993	0.476875	-0.756875	-1.400000
-287.248993	356.727997	1012.905029	0.590625	-0.634375	-1.513750
-282.002991	361.912994	1014.674011	0.673750	-0.568750	-1.561875
-282.186005	359.778015	1014.796021	0.643125	-0.691250	-1.338750
-285.846008	354.653992	1015.040039	0.577500	-0.651875	-1.478750
-282.002991	360.083008	1013.697998	0.551250	-0.656250	-1.544375
-286.089996	358.070007	1014.186035	0.630000	-0.538125	-1.509375
-284.869995	361.912994	1014.429993	0.520625	-0.647500	-1.487500
-284.869995	360.388000	1017.053040	0.555625	-0.568750	-1.421875
-280.904999	354.471008	1017.114014	0.560000	-0.595000	-1.382500
-284.626007	360.326996	1011.989990	0.621250	-0.511875	-1.487500
-281.027008	357.704010	1014.796021	0.612500	-0.581875	-1.526875
-286.089996	354.287994	1013.942017	0.603750	-0.630000	-1.623125
-280.539001	353.921997	1013.332031	0.625625	-0.621250	-1.557500
-284.626007	361.791016	1015.040039	0.621250	-0.511875	-1.483125
-287.187988	358.679993	1017.785034	0.476875	-0.555625	-1.531250
-282.368988	360.144012	1012.539001	0.630000	-0.498750	-1.491875
-280.477997	360.632019	1016.199036	0.586250	-0.708750	-1.518125
-281.454010	364.718994	1017.236023	0.516250	-0.581875	-1.500625
-281.209991	357.032990	1016.504028	0.599375	-0.647500	-1.474375
-283.040009	359.717010	1014.552002	0.590625	-0.568750	-1.465625
-283.528015	357.459991	1013.088013	0.625625	-0.555625	-1.566250
-283.528015	353.556000	1012.966003	0.581875	-0.511875	-1.557500
-283.649994	360.326996	1014.186035	0.616875	-0.612500	-1.435000
-283.040009	360.753998	1018.639038	0.538125	-0.581875	-1.553125
-278.709015	362.096008	1018.333984	0.494375	-0.428750	-1.513750
-283.283997	359.290009	1017.968018	0.485625	-0.564375	-1.421875
-285.358002	355.752014	1012.294983	0.656250	-0.595000	-1.395625
-279.684998	365.329010	1016.442993	0.656250	-0.621250	-1.430625
-284.931000	357.643005	1011.624023	0.625625	-0.529375	-1.386875
-280.173004	355.873993	1018.882996	0.643125	-0.647500	-1.351875
-281.332001	355.386017	1016.260010	0.647500	-0.638750	-1.448125
-286.089996	359.717010	1015.040039	0.638750	-0.673750	-1.491875
-282.247009	360.265991	1013.332031	0.595000	-0.573125	-1.404375
-278.830994	360.144012	1021.445007	0.590625	-0.507500	-1.408750
-285.053009	361.730011	1016.260010	0.590625	-0.573125	-1.369375
-282.247009	356.972015	1011.746033	0.564375	-0.577500	-1.395625
-278.343018	355.752014	1016.077026	0.660625	-0.560000	-1.540000
-283.772003	359.351013	1011.867981	0.669375	-0.599375	-1.408750
-284.626007	360.388000	1012.356018	0.577500	-0.555625	-1.496250
-287.920013	359.290009	1013.820007	0.612500	-0.612500	-1.566250
-283.101013	356.239990	1011.380005	0.634375	-0.673750	-1.522500
-282.674011	356.850006	1015.710999	0.551250	-0.625625	-1.435000
-308.233002	348.981018	1009.122986	0.945000	-1.063125	-1.465625
-275.720001	354.593018	1002.778992	0.980000	-0.691250	-1.631875
-263.764008	365.877991	1022.421021	0.262500	-1.995000	-1.246875
-287.981018	358.619019	1011.929016	0.210000	-1.505000	-1.277500
-278.587006	352.153015	1019.371033	0.227500	-1.233750	-1.273125
-283.162018	363.682007	1014.796021	0.306250	-1.500625	-1.404375
-275.049011	358.131012	1020.225037	0.126875	-1.312500	-1.566250
-283.710999	355.873993	1013.148987	0.126875	-1.732500	-2.541875
-271.205994	357.338013	1009.062012	0.266875	-1.732500	-2.541875
-271.205994	357.338013	1009.062012	0.980000	-8.474375	-6.781250
-275.354004	356.727997	1024.921997	0.039375	-5.643750	-7.078750
-286.639008	348.371002	1019.614990	-0.310625	-5.232500	-4.361875
-251.747009	353.373016	1018.700012	0.310625	-13.440000	-8.198750
-255.712006	348.920013	1027.422974	0.144375	-11.764375	-9.528750
-258.274017	349.164001	1024.677979	-0.713125	-11.602500	-5.757500
-243.512009	352.885010	1025.898071	-1.120000	-16.358126	-3.714375
-254.919006	340.929016	1030.717041	-1.207500	-11.462500	-1.627500
-229.115997	342.209991	1038.525024	-0.870625	-7.870625	0.770000
-225.516998	354.166016	1034.682007	-0.166250	-5.175625	0.533750
-233.081009	342.027008	1037.915039	0.210000	-2.454375	-0.678125
-229.421005	351.177002	1037.975952	0.603750	-2.445625	-0.809375
-223.686996	351.238007	1034.316040	0.008750	-3.355625	0.004375
-229.542999	343.369019	1040.110962	-0.310625	-3.080000	0.227500
-214.110001	342.454010	1037.609985	0.048125	-2.520000	0.240625
-223.565002	351.054993	1033.706055	0.074375	-1.172500	-0.682500
-222.528000	342.636993	1037.792969	0.424375	-0.931875	-1.207500
-215.513000	342.697998	1039.927979	0.870625	-0.888125	-1.435000
-231.434006	345.199005	1041.758057	0.603750	-0.923125	-1.483125
-202.641998	341.112000	1039.196045	0.630000	-2.200625	-0.896875
-225.639008	348.127014	1038.219971	-0.008750	-5.639375	-0.161875
-208.498001	344.649994	1038.463989	-0.660625	-6.903750	0.148750
-207.400009	347.151001	1039.073975	-0.595000	-7.017500	-0.061250
-198.798996	347.700012	1043.770996	-0.258125	-6.164375	-0.835625
-203.007996	340.684998	1049.505005	0.201250	-4.733750	-1.631875
-196.725006	341.600006	1048.589966	0.275625	-3.618125	-1.876875
